title: Osama_6.2RAW_Happy, recorded: 19.06.18 11.23.20, timestamp started:2017-11-21T16:17:43.558438-08:00            , sampling:256, subject:, labels:COUNTER INTERPOLATED F3 FC5 AF3 F7 T7 P7 O1 O2 P8 T8 F8 AF4 FC6 F4 RAW_CQ GYROX GYROY MARKER MARKER_HARDWARE SYNC TIME_STAMP_s TIME_STAMP_ms CQ_AF3 CQ_F7 CQ_F3 CQ_FC5 CQ_T7 CQ_P7 CQ_O1 CQ_O2 CQ_P8 CQ_T8 CQ_FC6 CQ_F4 CQ_F8 CQ_AF4 CQ_CMS CQ_DRL, , chan:40, samples:5000, units:emotiv
33, 16, 118, 127, 43, 127, 212, 127, 85, 127, 62, 128, 78, 127, 175, 127, 126, 127, 15, 128, 205, 127, 128, 127, 141, 127, 47, 127, 5, 128
34, 16, 169, 127, 5, 127, 213, 127, 69, 127, 98, 127, 90, 127, 156, 127, 122, 127, 253, 127, 144, 127, 181, 127, 126, 127, 86, 127, 234, 127
17, 32, 121, 0, 24, 0, 3, 0, 149, 5, 210, 194, 138, 8, 179, 0, 149, 252, 0, 0, 0, 0, 0, 0, 0, 0, 0, 0, 0, 0
35, 16, 144, 127, 42, 127, 182, 127, 157, 127, 84, 127, 137, 127, 162, 127, 124, 127, 171, 127, 123, 127, 214, 127, 125, 127, 67, 128, 9, 128
36, 16, 137, 127, 12, 127, 188, 127, 56, 127, 180, 127, 125, 127, 169, 127, 120, 127, 195, 127, 151, 127, 160, 127, 156, 127, 117, 128, 26, 128
18, 32, 133, 0, 28, 0, 250, 255, 155, 5, 145, 194, 29, 9, 174, 0, 153, 252, 0, 0, 0, 0, 0, 0, 0, 0, 0, 0, 0, 0
37, 16, 100, 127, 246, 126, 176, 127, 156, 126, 138, 127, 65, 127, 160, 127, 120, 127, 247, 127, 142, 127, 108, 127, 112, 127, 210, 127, 215, 127
38, 16, 43, 127, 240, 126, 111, 127, 20, 127, 155, 127, 67, 127, 156, 127, 128, 127, 232, 127, 87, 127, 96, 127, 22, 127, 183, 127, 192, 127
19, 32, 143, 0, 23, 0, 21, 0, 140, 5, 121, 194, 209, 8, 163, 0, 137, 252, 0, 0, 0, 0, 0, 0, 0, 0, 0, 0, 0, 0
39, 16, 78, 127, 32, 127, 131, 127, 191, 127, 227, 127, 124, 127, 196, 127, 137, 127, 243, 127, 44, 127, 110, 127, 43, 127, 82, 128, 243, 127
40, 16, 136, 127, 57, 127, 180, 127, 99, 127, 164, 127, 127, 127, 196, 127, 126, 127, 6, 128, 99, 127, 147, 127, 121, 127, 151, 128, 11, 128
20, 32, 148, 0, 13, 0, 51, 0, 242, 5, 17, 194, 151, 8, 183, 0, 143, 252, 0, 0, 0, 0, 0, 0, 0, 0, 0, 0, 0, 0
41, 16, 133, 127, 18, 127, 153, 127, 166, 126, 104, 127, 96, 127, 144, 127, 113, 127, 184, 127, 135, 127, 117, 127, 107, 127, 9, 128, 224, 127
42, 16, 128, 127, 46, 127, 158, 127, 22, 127, 9, 128, 151, 127, 179, 127, 131, 127, 196, 127, 100, 127, 95, 127, 111, 127, 208, 127, 255, 127
21, 32, 130, 0, 10, 0, 64, 0, 8, 6, 52, 194, 184, 8, 182, 0, 153, 252, 0, 0, 0, 0, 0, 0, 0, 0, 0, 0, 0, 0
43, 16, 156, 127, 80, 127, 199, 127, 210, 127, 80, 128, 195, 127, 199, 127, 135, 127, 39, 128, 133, 127, 173, 127, 165, 127, 52, 128, 44, 128
44, 16, 131, 127, 61, 127, 174, 127, 83, 127, 132, 127, 109, 127, 134, 127, 123, 127, 221, 127, 109, 127, 155, 127, 132, 127, 38, 128, 185, 127
22, 32, 118, 0, 4, 0, 75, 0, 186, 5, 231, 194, 71, 9, 179, 0, 138, 252, 0, 0, 0, 0, 0, 0, 0, 0, 0, 0, 0, 0
45, 16, 114, 127, 57, 127, 126, 127, 231, 126, 78, 127, 100, 127, 129, 127, 128, 127, 173, 127, 39, 127, 91, 127, 105, 127, 237, 127, 143, 127
46, 16, 118, 127, 79, 127, 118, 127, 41, 127, 242, 127, 131, 127, 181, 127, 133, 127, 1, 128, 81, 127, 120, 127, 94, 127, 246, 127, 231, 127
23, 32, 117, 0, 234, 255, 37, 0, 186, 5, 229, 194, 250, 8, 182, 0, 149, 252, 0, 0, 0, 0, 0, 0, 0, 0, 0, 0, 0, 0
47, 16, 57, 127, 42, 127, 103, 127, 13, 127, 2, 128, 61, 127, 191, 127, 126, 127, 247, 127, 67, 127, 118, 127, 18, 127, 250, 127, 197, 127
48, 16, 18, 127, 255, 126, 117, 127, 233, 126, 130, 127, 73, 127, 166, 127, 127, 127, 196, 127, 18, 127, 101, 127, 16, 127, 5, 128, 128, 127
24, 32, 112, 0, 248, 255, 31, 0, 87, 5, 212, 194, 192, 8, 169, 0, 138, 252, 0, 0, 0, 0, 0, 0, 0, 0, 0, 0, 0, 0
49, 16, 30, 127, 67, 127, 159, 127, 48, 127, 54, 127, 125, 127, 175, 127, 127, 127, 192, 127, 83, 127, 101, 127, 47, 127, 167, 127, 145, 127
50, 16, 36, 127, 79, 127, 127, 127, 246, 126, 146, 127, 83, 127, 162, 127, 122, 127, 175, 127, 117, 127, 69, 127, 248, 126, 206, 126, 136, 127
25, 32, 143, 0, 254, 255, 50, 0, 65, 5, 141, 194, 251, 8, 170, 0, 153, 252, 0, 0, 0, 0, 0, 0, 0, 0, 0, 0, 0, 0
51, 16, 51, 127, 34, 127, 115, 127, 120, 126, 11, 128, 64, 127, 148, 127, 127, 127, 151, 127, 21, 127, 59, 127, 5, 127, 129, 126, 130, 127
52, 16, 41, 127, 55, 127, 155, 127, 171, 126, 179, 127, 53, 127, 178, 127, 122, 127, 137, 127, 215, 126, 83, 127, 70, 127, 183, 126, 161, 127
26, 32, 139, 0, 8, 0, 51, 0, 80, 5, 131, 194, 75, 9, 187, 0, 146, 252, 0, 0, 0, 0, 0, 0, 0, 0, 0, 0, 0, 0
53, 16, 246, 126, 58, 127, 120, 127, 239, 126, 39, 127, 231, 126, 148, 127, 107, 127, 131, 127, 12, 127, 94, 127, 32, 127, 154, 126, 125, 127
54, 16, 50, 127, 68, 127, 110, 127, 46, 127, 130, 127, 17, 127, 157, 127, 124, 127, 177, 127, 82, 127, 104, 127, 42, 127, 147, 126, 158, 127
27, 32, 153, 0, 38, 0, 33, 0, 138, 5, 42, 194, 164, 8, 179, 0, 145, 252, 0, 0, 0, 0, 0, 0, 0, 0, 0, 0, 0, 0
55, 16, 173, 127, 83, 127, 192, 127, 143, 127, 77, 128, 160, 127, 220, 127, 143, 127, 8, 128, 67, 127, 167, 127, 165, 127, 200, 126, 37, 128
56, 16, 115, 127, 63, 127, 204, 127, 34, 127, 244, 127, 162, 127, 165, 127, 124, 127, 244, 127, 254, 126, 148, 127, 173, 127, 184, 126, 12, 128
28, 32, 136, 0, 42, 0, 31, 0, 126, 5, 54, 194, 240, 8, 180, 0, 138, 252, 0, 0, 0, 0, 0, 0, 0, 0, 0, 0, 0, 0
57, 16, 236, 126, 53, 127, 116, 127, 142, 126, 18, 127, 114, 127, 118, 127, 115, 127, 147, 127, 23, 127, 46, 127, 16, 127, 153, 126, 101, 127
58, 16, 8, 127, 37, 127, 83, 127, 252, 126, 100, 127, 134, 127, 155, 127, 125, 127, 113, 127, 50, 127, 18, 127, 222, 126, 124, 126, 97, 127
29, 32, 117, 0, 48, 0, 34, 0, 160, 5, 78, 194, 4, 9, 188, 0, 167, 252, 0, 0, 0, 0, 0, 0, 0, 0, 0, 0, 0, 0
59, 16, 124, 127, 79, 127, 170, 127, 90, 127, 65, 128, 166, 127, 174, 127, 129, 127, 156, 127, 7, 127, 114, 127, 107, 127, 156, 126, 231, 127
60, 16, 107, 127, 143, 127, 187, 127, 223, 126, 242, 127, 131, 127, 108, 127, 129, 127, 150, 127, 32, 127, 183, 127, 133, 127, 226, 126, 210, 127
30, 32, 107, 0, 33, 0, 237, 255, 142, 5, 74, 194, 230, 8, 194, 0, 140, 252, 0, 0, 0, 0, 0, 0, 0, 0, 0, 0, 0, 0
61, 16, 1, 127, 118, 127, 82, 127, 187, 126, 250, 126, 56, 127, 66, 127, 127, 127, 40, 127, 18, 127, 37, 127, 18, 127, 123, 126, 86, 127
62, 16, 33, 127, 137, 127, 139, 127, 99, 127, 109, 127, 85, 127, 154, 127, 123, 127, 52, 127, 235, 126, 243, 126, 55, 127, 117, 126, 159, 127
31, 32, 112, 0, 29, 0, 220, 255, 125, 5, 96, 194, 213, 8, 183, 0, 160, 252, 0, 0, 0, 0, 0, 0, 0, 0, 0, 0, 0, 0
63, 16, 114, 127, 173, 127, 2, 128, 148, 127, 81, 128, 184, 127, 187, 127, 124, 127, 227, 127, 98, 127, 200, 127, 182, 127, 69, 127, 8, 128
64, 16, 86, 127, 142, 127, 189, 127, 4, 127, 179, 127, 164, 127, 141, 127, 130, 127, 23, 128, 118, 127, 22, 128, 128, 127, 59, 127, 159, 127
32, 32, 130, 0, 29, 0, 177, 255, 175, 5, 109, 194, 220, 8, 183, 0, 142, 252, 0, 0, 0, 0, 0, 0, 0, 0, 0, 0, 0, 0
65, 16, 80, 127, 112, 127, 134, 127, 232, 126, 49, 127, 93, 127, 142, 127, 127, 127, 221, 127, 35, 127, 179, 127, 98, 127, 167, 126, 123, 127
66, 16, 109, 127, 106, 127, 180, 127, 129, 127, 10, 128, 115, 127, 147, 127, 121, 127, 236, 127, 77, 127, 168, 127, 202, 127, 209, 126, 6, 128
33, 32, 118, 0, 32, 0, 124, 255, 206, 5, 50, 194, 176, 8, 186, 0, 141, 252, 0, 0, 0, 0, 0, 0, 0, 0, 0, 0, 0, 0
67, 16, 98, 127, 153, 127, 189, 127, 139, 127, 97, 128, 125, 127, 121, 127, 124, 127, 203, 127, 85, 127, 235, 127, 198, 127, 37, 127, 28, 128
68, 16, 84, 127, 157, 127, 179, 127, 248, 126, 207, 127, 103, 127, 112, 127, 126, 127, 127, 127, 31, 127, 254, 127, 150, 127, 90, 127, 209, 127
34, 32, 120, 0, 247, 255, 140, 255, 66, 5, 113, 194, 164, 8, 167, 0, 149, 252, 0, 0, 0, 0, 0, 0, 0, 0, 0, 0, 0, 0
69, 16, 135, 127, 112, 127, 188, 127, 224, 126, 240, 127, 118, 127, 166, 127, 122, 127, 153, 127, 105, 127, 7, 128, 209, 127, 120, 127, 236, 127
70, 16, 175, 127, 144, 127, 186, 127, 120, 127, 52, 128, 168, 127, 203, 127, 121, 127, 189, 127, 160, 127, 1, 128, 16, 128, 42, 127, 33, 128
35, 32, 119, 0, 19, 0, 165, 255, 159, 5, 167, 194, 203, 8, 181, 0, 154, 252, 0, 0, 0, 0, 0, 0, 0, 0, 0, 0, 0, 0
71, 16, 164, 127, 208, 127, 165, 127, 21, 128, 253, 127, 239, 127, 180, 127, 124, 127, 217, 127, 102, 127, 9, 128, 238, 127, 38, 127, 6, 128
72, 16, 155, 127, 188, 127, 187, 127, 110, 127, 64, 128, 216, 127, 145, 127, 124, 127, 19, 128, 104, 127, 234, 127, 178, 127, 97, 127, 229, 127
36, 32, 116, 0, 3, 0, 143, 255, 195, 5, 177, 194, 116, 8, 182, 0, 153, 252, 0, 0, 0, 0, 0, 0, 0, 0, 0, 0, 0, 0
73, 16, 100, 127, 116, 127, 169, 127, 207, 126, 182, 128, 159, 127, 117, 127, 123, 127, 248, 127, 140, 127, 170, 127, 177, 127, 13, 127, 217, 127
74, 16, 154, 127, 173, 127, 177, 127, 192, 127, 123, 128, 199, 127, 163, 127, 125, 127, 219, 127, 145, 127, 23, 128, 246, 127, 85, 127, 248, 127
37, 32, 122, 0, 0, 0, 125, 255, 217, 5, 148, 194, 174, 8, 179, 0, 143, 252, 0, 0, 0, 0, 0, 0, 0, 0, 0, 0, 0, 0
75, 16, 7, 128, 225, 127, 225, 127, 248, 127, 253, 127, 190, 127, 183, 127, 127, 127, 250, 127, 168, 127, 119, 128, 37, 128, 249, 127, 22, 128
76, 16, 190, 127, 138, 127, 185, 127, 241, 126, 28, 128, 127, 127, 98, 127, 124, 127, 204, 127, 151, 127, 5, 128, 4, 128, 94, 127, 9, 128
38, 32, 135, 0, 212, 255, 72, 255, 212, 5, 174, 194, 176, 8, 176, 0, 155, 252, 0, 0, 0, 0, 0, 0, 0, 0, 0, 0, 0, 0
77, 16, 68, 127, 125, 127, 117, 127, 30, 127, 127, 128, 182, 127, 116, 127, 126, 127, 139, 127, 98, 127, 210, 127, 5, 128, 218, 126, 8, 128
78, 16, 70, 127, 152, 127, 78, 127, 161, 127, 101, 128, 201, 127, 198, 127, 130, 127, 192, 127, 114, 127, 28, 128, 254, 127, 91, 127, 249, 127
39, 32, 127, 0, 232, 255, 46, 255, 231, 5, 170, 194, 208, 8, 164, 0, 155, 252, 0, 0, 0, 0, 0, 0, 0, 0, 0, 0, 0, 0
79, 16, 132, 127, 126, 127, 130, 127, 27, 127, 61, 128, 130, 127, 187, 127, 131, 127, 95, 128, 225, 127, 49, 128, 251, 127, 207, 127, 251, 127
80, 16, 142, 127, 132, 127, 170, 127, 242, 126, 70, 128, 159, 127, 167, 127, 129, 127, 103, 128, 252, 127, 19, 128, 36, 128, 169, 127, 251, 127
40, 32, 127, 0, 246, 255, 248, 254, 166, 5, 190, 194, 180, 8, 168, 0, 143, 252, 0, 0, 0, 0, 0, 0, 0, 0, 0, 0, 0, 0
81, 16, 92, 127, 133, 127, 139, 127, 50, 127, 63, 128, 199, 127, 164, 127, 124, 127, 162, 127, 157, 127, 15, 128, 247, 127, 34, 127, 171, 127
82, 16, 55, 127, 155, 127, 121, 127, 17, 127, 76, 128, 134, 127, 149, 127, 123, 127, 88, 127, 81, 127, 221, 127, 153, 127, 245, 126, 89, 127
41, 32, 127, 0, 254, 255, 229, 254, 130, 5, 85, 194, 205, 8, 172, 0, 146, 252, 0, 0, 0, 0, 0, 0, 0, 0, 0, 0, 0, 0
83, 16, 28, 127, 188, 127, 115, 127, 155, 127, 150, 128, 123, 127, 140, 127, 127, 127, 213, 127, 101, 127, 181, 127, 177, 127, 107, 127, 108, 127
84, 16, 49, 127, 151, 127, 142, 127, 134, 127, 114, 128, 145, 127, 153, 127, 133, 127, 11, 128, 204, 127, 199, 127, 8, 128, 161, 127, 144, 127
42, 32, 119, 0, 51, 0, 233, 254, 218, 5, 36, 194, 197, 8, 152, 0, 147, 252, 0, 0, 0, 0, 0, 0, 0, 0, 0, 0, 0, 0
85, 16, 105, 127, 144, 127, 140, 127, 171, 126, 65, 128, 127, 127, 184, 127, 130, 127, 198, 127, 237, 127, 173, 127, 7, 128, 8, 127, 141, 127
86, 16, 131, 127, 160, 127, 137, 127, 29, 127, 189, 128, 172, 127, 180, 127, 119, 127, 246, 127, 163, 127, 216, 127, 248, 127, 236, 126, 173, 127
43, 32, 117, 0, 49, 0, 226, 254, 2, 6, 210, 194, 211, 8, 171, 0, 147, 252, 0, 0, 0, 0, 0, 0, 0, 0, 0, 0, 0, 0
87, 16, 48, 127, 160, 127, 134, 127, 182, 127, 3, 129, 254, 127, 184, 127, 128, 127, 53, 128, 152, 127, 61, 128, 5, 128, 77, 127, 165, 127
88, 16, 213, 126, 124, 127, 100, 127, 127, 127, 178, 128, 253, 127, 198, 127, 142, 127, 26, 128, 248, 127, 66, 128, 8, 128, 39, 127, 122, 127
44, 32, 86, 0, 55, 0, 240, 254, 17, 6, 215, 194, 236, 8, 160, 0, 160, 252, 0, 0, 0, 0, 0, 0, 0, 0, 0, 0, 0, 0
89, 16, 23, 127, 97, 127, 130, 127, 41, 127, 106, 128, 183, 127, 164, 127, 134, 127, 246, 127, 3, 128, 40, 128, 18, 128, 245, 126, 140, 127
90, 16, 50, 127, 134, 127, 126, 127, 225, 126, 79, 128, 143, 127, 137, 127, 126, 127, 228, 127, 148, 127, 34, 128, 221, 127, 237, 126, 93, 127
45, 32, 94, 0, 90, 0, 246, 254, 101, 6, 154, 194, 9, 9, 167, 0, 147, 252, 0, 0, 0, 0, 0, 0, 0, 0, 0, 0, 0, 0
91, 16, 214, 126, 168, 127, 18, 127, 225, 127, 66, 128, 131, 127, 141, 127, 131, 127, 240, 127, 113, 127, 18, 128, 174, 127, 8, 127, 9, 127
92, 16, 1, 127, 198, 127, 16, 127, 215, 129, 158, 128, 127, 127, 180, 127, 140, 127, 245, 127, 208, 127, 45, 128, 25, 128, 90, 127, 77, 127
46, 32, 105, 0, 90, 0, 203, 254, 30, 6, 99, 194, 232, 8, 165, 0, 144, 252, 0, 0, 0, 0, 0, 0, 0, 0, 0, 0, 0, 0
93, 16, 139, 127, 160, 127, 137, 127, 239, 129, 31, 129, 146, 127, 177, 127, 132, 127, 1, 128, 41, 128, 125, 128, 149, 128, 106, 127, 208, 127
94, 16, 173, 127, 137, 127, 151, 127, 23, 129, 36, 129, 168, 127, 129, 127, 127, 127, 12, 128, 29, 128, 117, 128, 143, 128, 86, 127, 236, 127
47, 32, 89, 0, 97, 0, 217, 254, 49, 6, 137, 194, 20, 9, 161, 0, 156, 252, 0, 0, 0, 0, 0, 0, 0, 0, 0, 0, 0, 0
95, 16, 130, 127, 219, 127, 127, 127, 23, 130, 207, 128, 175, 127, 134, 127, 133, 127, 240, 127, 0, 128, 83, 128, 132, 128, 94, 127, 213, 127
96, 16, 101, 127, 197, 127, 139, 127, 210, 130, 182, 128, 185, 127, 157, 127, 131, 127, 255, 127, 35, 128, 132, 128, 127, 128, 91, 127, 188, 127
48, 32, 116, 0, 121, 0, 0, 255, 95, 6, 211, 194, 24, 9, 156, 0, 182, 252, 0, 0, 0, 0, 0, 0, 0, 0, 0, 0, 0, 0
97, 16, 70, 127, 111, 127, 101, 127, 139, 129, 171, 128, 175, 127, 181, 127, 129, 127, 250, 127, 8, 128, 110, 128, 41, 128, 32, 127, 107, 127
98, 16, 253, 126, 125, 127, 28, 127, 229, 128, 94, 128, 130, 127, 164, 127, 134, 127, 103, 127, 134, 127, 218, 127, 190, 127, 208, 126, 15, 127
49, 32, 131, 0, 127, 0, 12, 255, 146, 6, 147, 194, 233, 9, 146, 0, 142, 252, 0, 0, 0, 0, 0, 0, 0, 0, 0, 0, 0, 0
99, 16, 182, 126, 138, 127, 241, 126, 247, 129, 180, 128, 124, 127, 108, 127, 138, 127, 34, 127, 128, 127, 155, 127, 176, 127, 200, 126, 14, 127
100, 16, 198, 126, 146, 127, 43, 127, 3, 130, 35, 129, 133, 127, 119, 127, 132, 127, 175, 127, 232, 127, 225, 127, 217, 127, 245, 126, 68, 127
50, 32, 128, 0, 111, 0, 42, 255, 47, 7, 68, 194, 70, 9, 157, 0, 157, 252, 0, 0, 0, 0, 0, 0, 0, 0, 0, 0, 0, 0
101, 16, 1, 127, 179, 127, 85, 127, 235, 128, 171, 128, 141, 127, 148, 127, 128, 127, 237, 127, 205, 127, 253, 127, 246, 127, 8, 127, 65, 127
102, 16, 23, 127, 164, 127, 44, 127, 222, 128, 130, 128, 163, 127, 135, 127, 136, 127, 140, 127, 122, 127, 220, 127, 243, 127, 255, 126, 41, 127
51, 32, 107, 0, 90, 0, 48, 255, 29, 7, 46, 194, 135, 8, 160, 0, 154, 252, 0, 0, 0, 0, 0, 0, 0, 0, 0, 0, 0, 0
103, 16, 9, 127, 131, 127, 44, 127, 163, 129, 224, 128, 126, 127, 97, 127, 133, 127, 117, 127, 138, 127, 205, 127, 213, 127, 6, 127, 61, 127
104, 16, 225, 126, 143, 127, 77, 127, 207, 129, 158, 128, 89, 127, 87, 127, 127, 127, 121, 127, 161, 127, 152, 127, 195, 127, 238, 126, 60, 127
52, 32, 71, 0, 58, 0, 49, 255, 82, 7, 115, 194, 249, 8, 150, 0, 141, 252, 0, 0, 0, 0, 0, 0, 0, 0, 0, 0, 0, 0
105, 16, 23, 127, 140, 127, 113, 127, 53, 129, 95, 128, 105, 127, 125, 127, 134, 127, 90, 127, 165, 127, 114, 127, 246, 127, 3, 127, 114, 127
106, 16, 148, 127, 114, 127, 128, 127, 44, 129, 239, 128, 169, 127, 147, 127, 133, 127, 152, 127, 253, 127, 240, 127, 84, 128, 160, 127, 236, 127
53, 32, 39, 0, 41, 0, 49, 255, 161, 6, 28, 195, 150, 8, 151, 0, 146, 252, 0, 0, 0, 0, 0, 0, 0, 0, 0, 0, 0, 0
107, 16, 105, 127, 166, 127, 72, 127, 1, 130, 18, 129, 209, 127, 147, 127, 127, 127, 174, 127, 45, 128, 63, 128, 50, 128, 167, 127, 214, 127
108, 16, 224, 126, 223, 127, 29, 127, 59, 130, 202, 128, 186, 127, 123, 127, 145, 127, 108, 127, 209, 127, 193, 127, 217, 127, 247, 126, 129, 127
54, 32, 34, 0, 50, 0, 34, 255, 137, 6, 37, 195, 172, 8, 152, 0, 148, 252, 0, 0, 0, 0, 0, 0, 0, 0, 0, 0, 0, 0
109, 16, 254, 126, 144, 127, 77, 127, 18, 129, 166, 128, 142, 127, 107, 127, 156, 127, 131, 127, 192, 127, 117, 127, 239, 127, 189, 126, 144, 127
110, 16, 60, 127, 102, 127, 74, 127, 163, 128, 103, 128, 123, 127, 155, 127, 138, 127, 191, 127, 228, 127, 211, 127, 250, 127, 63, 127, 148, 127
55, 32, 26, 0, 47, 0, 33, 255, 214, 6, 54, 195, 252, 8, 138, 0, 158, 252, 0, 0, 0, 0, 0, 0, 0, 0, 0, 0, 0, 0
111, 16, 254, 126, 125, 127, 255, 126, 45, 129, 115, 128, 164, 127, 181, 127, 124, 127, 158, 127, 192, 127, 13, 128, 178, 127, 154, 127, 109, 127
112, 16, 175, 126, 148, 127, 7, 127, 25, 129, 128, 128, 166, 127, 156, 127, 135, 127, 157, 127, 191, 127, 180, 127, 131, 127, 79, 127, 126, 127
56, 32, 59, 0, 75, 0, 35, 255, 12, 7, 21, 195, 177, 8, 140, 0, 138, 252, 0, 0, 0, 0, 0, 0, 0, 0, 0, 0, 0, 0
113, 16, 180, 126, 156, 127, 78, 127, 169, 128, 53, 128, 106, 127, 125, 127, 139, 127, 232, 127, 230, 127, 133, 127, 154, 127, 12, 127, 155, 127
114, 16, 219, 126, 121, 127, 71, 127, 48, 128, 239, 127, 83, 127, 73, 127, 130, 127, 181, 127, 143, 127, 172, 127, 146, 127, 12, 127, 127, 127
57, 32, 57, 0, 82, 0, 1, 255, 14, 7, 1, 195, 189, 8, 141, 0, 152, 252, 0, 0, 0, 0, 0, 0, 0, 0, 0, 0, 0, 0
115, 16, 251, 126, 146, 127, 24, 127, 118, 128, 26, 128, 101, 127, 100, 127, 126, 127, 89, 127, 79, 127, 201, 127, 179, 127, 24, 127, 144, 127
116, 16, 64, 127, 181, 127, 94, 127, 15, 129, 112, 128, 134, 127, 185, 127, 123, 127, 189, 127, 239, 127, 7, 128, 45, 128, 128, 127, 9, 128
58, 32, 61, 0, 86, 0, 3, 255, 93, 7, 246, 194, 241, 8, 154, 0, 145, 252, 0, 0, 0, 0, 0, 0, 0, 0, 0, 0, 0, 0
117, 16, 91, 127, 191, 127, 156, 127, 208, 128, 155, 128, 175, 127, 193, 127, 131, 127, 24, 128, 61, 128, 32, 128, 46, 128, 173, 127, 16, 128
118, 16, 36, 127, 181, 127, 92, 127, 108, 128, 22, 129, 230, 127, 178, 127, 141, 127, 234, 127, 211, 127, 2, 128, 222, 127, 38, 127, 153, 127
59, 32, 83, 0, 76, 0, 23, 255, 142, 7, 232, 194, 12, 9, 140, 0, 146, 252, 0, 0, 0, 0, 0, 0, 0, 0, 0, 0, 0, 0
119, 16, 66, 127, 121, 127, 73, 127, 110, 128, 90, 129, 228, 127, 167, 127, 132, 127, 222, 127, 185, 127, 235, 127, 232, 127, 7, 127, 172, 127
120, 16, 167, 127, 173, 127, 166, 127, 192, 128, 253, 128, 195, 127, 168, 127, 125, 127, 254, 127, 247, 127, 248, 127, 25, 128, 153, 127, 16, 128
60, 32, 22, 0, 67, 0, 235, 254, 183, 7, 202, 194, 209, 8, 142, 0, 163, 252, 0, 0, 0, 0, 0, 0, 0, 0, 0, 0, 0, 0
121, 16, 145, 127, 229, 127, 168, 127, 38, 129, 251, 128, 176, 127, 158, 127, 130, 127, 10, 128, 22, 128, 10, 128, 55, 128, 157, 127, 14, 128
122, 16, 48, 127, 168, 127, 79, 127, 79, 129, 133, 129, 154, 127, 130, 127, 129, 127, 242, 127, 255, 127, 243, 127, 64, 128, 99, 127, 1, 128
61, 32, 24, 0, 57, 0, 229, 254, 222, 7, 100, 194, 166, 8, 139, 0, 133, 252, 0, 0, 0, 0, 0, 0, 0, 0, 0, 0, 0, 0
123, 16, 94, 127, 123, 127, 82, 127, 118, 128, 138, 129, 163, 127, 152, 127, 127, 127, 229, 127, 229, 127, 254, 127, 46, 128, 198, 127, 30, 128
124, 16, 178, 127, 165, 127, 120, 127, 225, 127, 91, 129, 154, 127, 146, 127, 127, 127, 218, 127, 229, 127, 23, 128, 7, 128, 243, 127, 1, 128
62, 32, 24, 0, 48, 0, 0, 255, 113, 7, 46, 195, 142, 8, 127, 0, 137, 252, 0, 0, 0, 0, 0, 0, 0, 0, 0, 0, 0, 0
125, 16, 162, 127, 216, 127, 140, 127, 197, 128, 207, 129, 136, 127, 122, 127, 127, 127, 198, 127, 1, 128, 22, 128, 13, 128, 235, 127, 230, 127
126, 16, 118, 127, 186, 127, 138, 127, 57, 129, 48, 130, 153, 127, 122, 127, 132, 127, 146, 127, 241, 127, 1, 128, 16, 128, 70, 128, 13, 128
63, 32, 38, 0, 56, 0, 8, 255, 196, 7, 243, 194, 152, 8, 130, 0, 133, 252, 0, 0, 0, 0, 0, 0, 0, 0, 0, 0, 0, 0
127, 16, 130, 127, 151, 127, 107, 127, 182, 128, 248, 129, 142, 127, 110, 127, 130, 127, 72, 127, 193, 127, 8, 128, 5, 128, 95, 128, 10, 128
0, 16, 144, 127, 158, 127, 77, 127, 67, 128, 85, 129, 95, 127, 109, 127, 128, 127, 13, 127, 160, 127, 239, 127, 238, 127, 218, 127, 181, 127
0, 32, 33, 0, 75, 0, 4, 255, 236, 7, 202, 194, 124, 8, 130, 0, 152, 252, 0, 0, 0, 0, 0, 0, 0, 0, 0, 0, 0, 0
1, 16, 122, 127, 148, 127, 97, 127, 29, 128, 107, 129, 132, 127, 118, 127, 130, 127, 7, 127, 139, 127, 196, 127, 203, 127, 159, 127, 130, 127
2, 16, 167, 127, 185, 127, 190, 127, 23, 128, 149, 130, 174, 127, 125, 127, 131, 127, 92, 127, 201, 127, 40, 128, 25, 128, 64, 128, 251, 127
1, 32, 35, 0, 72, 0, 252, 254, 23, 8, 80, 194, 254, 8, 131, 0, 153, 252, 0, 0, 0, 0, 0, 0, 0, 0, 0, 0, 0, 0
3, 16, 203, 127, 204, 127, 187, 127, 128, 128, 245, 130, 117, 127, 96, 127, 133, 127, 171, 127, 11, 128, 112, 128, 111, 128, 176, 128, 109, 128
4, 16, 180, 127, 124, 127, 110, 127, 171, 128, 5, 130, 85, 127, 83, 127, 129, 127, 115, 127, 192, 127, 28, 128, 74, 128, 86, 128, 54, 128
2, 32, 244, 255, 72, 0, 51, 255, 243, 7, 94, 194, 43, 8, 136, 0, 152, 252, 0, 0, 0, 0, 0, 0, 0, 0, 0, 0, 0, 0
5, 16, 176, 127, 130, 127, 133, 127, 117, 128, 182, 129, 124, 127, 112, 127, 118, 127, 3, 127, 124, 127, 228, 127, 6, 128, 248, 127, 251, 127
6, 16, 117, 127, 180, 127, 127, 127, 156, 128, 76, 130, 139, 127, 84, 127, 117, 127, 15, 127, 193, 127, 13, 128, 230, 127, 254, 127, 224, 127
3, 32, 245, 255, 72, 0, 39, 255, 233, 7, 240, 194, 28, 8, 112, 0, 144, 252, 0, 0, 0, 0, 0, 0, 0, 0, 0, 0, 0, 0
7, 16, 89, 127, 138, 127, 103, 127, 43, 128, 95, 130, 78, 127, 60, 127, 126, 127, 112, 127, 178, 127, 254, 127, 214, 127, 253, 127, 188, 127
8, 16, 199, 127, 120, 127, 202, 127, 214, 127, 97, 130, 87, 127, 114, 127, 127, 127, 165, 127, 149, 127, 253, 127, 250, 127, 12, 128, 242, 127
4, 32, 243, 255, 56, 0, 248, 254, 236, 7, 47, 195, 78, 8, 120, 0, 146, 252, 0, 0, 0, 0, 0, 0, 0, 0, 0, 0, 0, 0
9, 16, 193, 127, 163, 127, 192, 127, 85, 128, 106, 130, 129, 127, 127, 127, 126, 127, 118, 127, 254, 127, 16, 128, 0, 128, 238, 127, 253, 127
10, 16, 61, 127, 198, 127, 70, 127, 28, 128, 23, 130, 46, 127, 80, 127, 127, 127, 247, 126, 231, 127, 157, 127, 157, 127, 155, 127, 167, 127
5, 32, 243, 255, 70, 0, 242, 254, 143, 7, 58, 195, 31, 8, 124, 0, 145, 252, 0, 0, 0, 0, 0, 0, 0, 0, 0, 0, 0, 0
11, 16, 86, 127, 172, 127, 90, 127, 248, 127, 124, 130, 42, 127, 109, 127, 127, 127, 22, 127, 122, 127, 163, 127, 141, 127, 216, 127, 198, 127
12, 16, 140, 127, 128, 127, 108, 127, 124, 128, 200, 130, 138, 127, 181, 127, 134, 127, 129, 127, 126, 127, 8, 128, 171, 127, 165, 127, 238, 127
6, 32, 244, 255, 113, 0, 218, 254, 124, 7, 73, 195, 86, 8, 115, 0, 135, 252, 0, 0, 0, 0, 0, 0, 0, 0, 0, 0, 0, 0
13, 16, 64, 127, 123, 127, 51, 127, 3, 128, 0, 130, 120, 127, 128, 127, 135, 127, 43, 127, 115, 127, 196, 127, 92, 127, 129, 126, 111, 127
14, 16, 45, 127, 175, 127, 65, 127, 121, 127, 243, 129, 90, 127, 80, 127, 135, 127, 45, 127, 138, 127, 158, 127, 95, 127, 97, 126, 135, 127
7, 32, 250, 255, 145, 0, 236, 254, 158, 7, 52, 195, 48, 8, 111, 0, 145, 252, 0, 0, 0, 0, 0, 0, 0, 0, 0, 0, 0, 0
15, 16, 98, 127, 197, 127, 88, 127, 47, 128, 169, 130, 154, 127, 161, 127, 135, 127, 222, 127, 218, 127, 232, 127, 192, 127, 254, 126, 15, 128
16, 16, 96, 127, 138, 127, 60, 127, 105, 128, 101, 130, 158, 127, 166, 127, 124, 127, 203, 127, 181, 127, 188, 127, 172, 127, 162, 126, 197, 127
8, 32, 1, 0, 160, 0, 255, 254, 58, 8, 210, 194, 193, 8, 119, 0, 138, 252, 0, 0, 0, 0, 0, 0, 0, 0, 0, 0, 0, 0
17, 16, 99, 127, 167, 127, 84, 127, 176, 127, 48, 130, 119, 127, 121, 127, 126, 127, 146, 127, 157, 127, 116, 127, 110, 127, 67, 126, 108, 127
18, 16, 36, 127, 225, 127, 76, 127, 222, 127, 123, 130, 141, 127, 133, 127, 128, 127, 242, 127, 197, 127, 137, 127, 120, 127, 144, 126, 127, 127
9, 32, 6, 0, 179, 0, 6, 255, 49, 8, 202, 194, 147, 8, 119, 0, 137, 252, 0, 0, 0, 0, 0, 0, 0, 0, 0, 0, 0, 0
19, 16, 222, 126, 148, 127, 42, 127, 109, 128, 34, 130, 145, 127, 104, 127, 122, 127, 227, 127, 118, 127, 116, 127, 100, 127, 123, 126, 118, 127
20, 16, 79, 127, 123, 127, 124, 127, 24, 128, 19, 130, 132, 127, 94, 127, 131, 127, 186, 127, 142, 127, 176, 127, 130, 127, 161, 126, 185, 127
10, 32, 251, 255, 189, 0, 18, 255, 25, 8, 114, 194, 42, 8, 114, 0, 140, 252, 0, 0, 0, 0, 0, 0, 0, 0, 0, 0, 0, 0
21, 16, 180, 127, 176, 127, 177, 127, 138, 127, 104, 130, 131, 127, 106, 127, 138, 127, 0, 128, 17, 128, 30, 128, 220, 127, 78, 127, 23, 128
22, 16, 112, 127, 203, 127, 98, 127, 154, 127, 8, 130, 144, 127, 100, 127, 131, 127, 217, 127, 187, 127, 184, 127, 141, 127, 254, 126, 206, 127
11, 32, 220, 255, 187, 0, 42, 255, 89, 8, 163, 194, 54, 8, 110, 0, 150, 252, 0, 0, 0, 0, 0, 0, 0, 0, 0, 0, 0, 0
23, 16, 45, 127, 214, 127, 38, 127, 2, 128, 205, 129, 156, 127, 119, 127, 129, 127, 114, 127, 113, 127, 76, 127, 13, 127, 55, 126, 93, 127
24, 16, 85, 127, 165, 127, 85, 127, 30, 128, 7, 130, 140, 127, 122, 127, 135, 127, 142, 127, 238, 127, 190, 127, 88, 127, 151, 126, 136, 127
12, 32, 227, 255, 202, 0, 42, 255, 62, 8, 144, 194, 5, 8, 111, 0, 129, 252, 0, 0, 0, 0, 0, 0, 0, 0, 0, 0, 0, 0
25, 16, 167, 127, 132, 127, 159, 127, 217, 127, 3, 130, 160, 127, 127, 127, 139, 127, 231, 127, 60, 128, 35, 128, 197, 127, 74, 127, 221, 127
26, 16, 173, 127, 136, 127, 124, 127, 145, 127, 3, 130, 193, 127, 127, 127, 137, 127, 0, 128, 236, 127, 206, 127, 162, 127, 252, 126, 198, 127
13, 32, 186, 255, 187, 0, 111, 255, 134, 8, 182, 194, 10, 8, 109, 0, 144, 252, 0, 0, 0, 0, 0, 0, 0, 0, 0, 0, 0, 0
27, 16, 128, 127, 168, 127, 46, 127, 116, 127, 218, 129, 127, 127, 97, 127, 133, 127, 235, 127, 134, 127, 107, 127, 99, 127, 131, 126, 125, 127
28, 16, 185, 127, 206, 127, 106, 127, 198, 127, 183, 129, 133, 127, 117, 127, 130, 127, 251, 127, 197, 127, 166, 127, 162, 127, 224, 126, 157, 127
14, 32, 170, 255, 165, 0, 181, 255, 49, 9, 166, 194, 22, 8, 107, 0, 134, 252, 0, 0, 0, 0, 0, 0, 0, 0, 0, 0, 0, 0
29, 16, 214, 127, 156, 127, 142, 127, 12, 128, 43, 130, 232, 127, 135, 127, 123, 127, 239, 127, 9, 128, 210, 127, 188, 127, 229, 126, 198, 127
30, 16, 58, 127, 147, 127, 53, 127, 152, 127, 70, 130, 180, 127, 116, 127, 124, 127, 193, 127, 151, 127, 64, 127, 49, 127, 33, 126, 78, 127
15, 32, 148, 255, 132, 0, 221, 255, 133, 8, 189, 194, 101, 8, 111, 0, 140, 252, 0, 0, 0, 0, 0, 0, 0, 0, 0, 0, 0, 0
31, 16, 35, 127, 169, 127, 94, 127, 64, 127, 195, 129, 136, 127, 122, 127, 137, 127, 2, 128, 128, 127, 40, 127, 29, 127, 70, 126, 83, 127
32, 16, 220, 127, 124, 127, 183, 127, 150, 127, 185, 129, 226, 127, 131, 127, 130, 127, 26, 128, 1, 128, 165, 127, 165, 127, 209, 126, 205, 127
16, 32, 142, 255, 112, 0, 232, 255, 62, 8, 227, 194, 72, 8, 102, 0, 142, 252, 0, 0, 0, 0, 0, 0, 0, 0, 0, 0, 0, 0
33, 16, 157, 127, 140, 127, 103, 127, 142, 127, 3, 130, 217, 127, 135, 127, 121, 127, 176, 127, 245, 127, 107, 127, 108, 127, 81, 126, 108, 127
34, 16, 219, 126, 163, 127, 67, 127, 62, 127, 225, 129, 181, 127, 125, 127, 136, 127, 208, 127, 207, 127, 65, 127, 227, 126, 44, 126, 20, 127
17, 32, 142, 255, 102, 0, 56, 0, 18, 8, 116, 195, 58, 8, 111, 0, 139, 252, 0, 0, 0, 0, 0, 0, 0, 0, 0, 0, 0, 0
35, 16, 83, 127, 104, 127, 142, 127, 38, 127, 176, 129, 240, 127, 134, 127, 135, 127, 11, 128, 240, 127, 142, 127, 24, 127, 174, 126, 97, 127
36, 16, 149, 127, 129, 127, 63, 127, 73, 127, 213, 129, 240, 127, 150, 127, 126, 127, 151, 127, 91, 127, 254, 126, 41, 127, 74, 126, 81, 127
18, 32, 167, 255, 107, 0, 99, 0, 102, 8, 72, 195, 50, 8, 100, 0, 133, 252, 0, 0, 0, 0, 0, 0, 0, 0, 0, 0, 0, 0
37, 16, 202, 126, 246, 127, 220, 126, 242, 127, 72, 130, 230, 127, 140, 127, 134, 127, 143, 127, 232, 126, 120, 126, 212, 126, 192, 125, 245, 126
38, 16, 232, 126, 161, 127, 77, 127, 33, 128, 238, 129, 244, 127, 108, 127, 140, 127, 31, 128, 116, 127, 28, 127, 229, 126, 36, 126, 5, 127
19, 32, 203, 255, 116, 0, 113, 0, 102, 8, 130, 195, 32, 8, 114, 0, 112, 252, 0, 0, 0, 0, 0, 0, 0, 0, 0, 0, 0, 0
39, 16, 200, 127, 251, 126, 135, 127, 211, 126, 3, 129, 154, 127, 48, 127, 133, 127, 36, 128, 180, 127, 101, 127, 25, 127, 113, 126, 76, 127
40, 16, 146, 127, 147, 127, 96, 127, 165, 126, 63, 129, 150, 127, 52, 127, 131, 127, 199, 127, 88, 127, 55, 127, 49, 127, 99, 126, 141, 127
20, 32, 199, 255, 120, 0, 120, 0, 21, 8, 46, 195, 238, 7, 101, 0, 136, 252, 0, 0, 0, 0, 0, 0, 0, 0, 0, 0, 0, 0
41, 16, 12, 127, 21, 128, 101, 127, 134, 128, 195, 129, 22, 128, 99, 127, 136, 127, 10, 128, 155, 127, 117, 127, 97, 127, 154, 126, 172, 127
42, 16, 136, 127, 112, 127, 116, 127, 155, 128, 235, 128, 23, 128, 77, 127, 132, 127, 103, 128, 27, 128, 91, 127, 133, 127, 213, 126, 144, 127
21, 32, 250, 255, 129, 0, 125, 0, 10, 8, 89, 194, 209, 7, 112, 0, 122, 252, 0, 0, 0, 0, 0, 0, 0, 0, 0, 0, 0, 0
43, 16, 203, 127, 102, 127, 139, 127, 41, 127, 85, 128, 209, 127, 62, 127, 132, 127, 31, 128, 169, 127, 33, 127, 95, 127, 225, 126, 131, 127
44, 16, 6, 127, 206, 127, 94, 127, 14, 128, 111, 129, 4, 128, 110, 127, 132, 127, 216, 127, 78, 127, 52, 127, 19, 127, 97, 126, 130, 127
22, 32, 220, 255, 135, 0, 149, 0, 79, 8, 104, 194, 194, 7, 106, 0, 197, 252, 0, 0, 0, 0, 0, 0, 0, 0, 0, 0, 0, 0
45, 16, 222, 126, 111, 127, 39, 127, 203, 128, 57, 129, 44, 128, 142, 127, 131, 127, 3, 128, 192, 127, 29, 127, 8, 127, 240, 125, 98, 127
46, 16, 128, 127, 71, 127, 73, 127, 191, 127, 170, 127, 190, 127, 92, 127, 128, 127, 33, 128, 188, 127, 64, 127, 28, 127, 84, 126, 48, 127
23, 32, 193, 255, 113, 0, 225, 0, 70, 8, 191, 194, 66, 7, 102, 0, 146, 252, 0, 0, 0, 0, 0, 0, 0, 0, 0, 0, 0, 0
47, 16, 95, 127, 186, 127, 95, 127, 111, 128, 225, 127, 248, 126, 72, 127, 130, 127, 238, 127, 79, 127, 137, 127, 252, 126, 187, 126, 44, 127
48, 16, 42, 127, 173, 127, 117, 127, 154, 129, 145, 128, 138, 126, 137, 127, 143, 127, 252, 127, 180, 127, 123, 127, 44, 127, 186, 126, 120, 127
24, 32, 161, 255, 104, 0, 214, 0, 42, 8, 71, 195, 221, 7, 104, 0, 119, 252, 0, 0, 0, 0, 0, 0, 0, 0, 0, 0, 0, 0
49, 16, 165, 127, 81, 127, 121, 127, 62, 129, 7, 128, 206, 126, 141, 127, 141, 127, 85, 128, 43, 128, 109, 127, 132, 127, 169, 126, 166, 127
50, 16, 170, 127, 151, 127, 67, 127, 154, 129, 48, 127, 32, 127, 99, 127, 135, 127, 50, 128, 139, 127, 88, 127, 60, 127, 155, 126, 123, 127
25, 32, 178, 255, 129, 0, 149, 0, 83, 8, 55, 196, 252, 7, 107, 0, 118, 252, 0, 0, 0, 0, 0, 0, 0, 0, 0, 0, 0, 0
51, 16, 102, 127, 186, 127, 79, 127, 105, 130, 20, 127, 28, 127, 97, 127, 138, 127, 155, 127, 43, 127, 91, 127, 39, 127, 177, 126, 123, 127
52, 16, 190, 127, 87, 127, 187, 127, 230, 129, 85, 127, 13, 127, 86, 127, 133, 127, 85, 127, 141, 127, 147, 127, 147, 127, 172, 126, 146, 127
26, 32, 208, 255, 131, 0, 100, 0, 161, 8, 250, 195, 139, 7, 109, 0, 131, 252, 0, 0, 0, 0, 0, 0, 0, 0, 0, 0, 0, 0
53, 16, 213, 127, 153, 127, 178, 127, 139, 129, 112, 127, 66, 127, 103, 127, 128, 127, 164, 127, 100, 127, 85, 127, 102, 127, 71, 126, 84, 127
54, 16, 68, 127, 189, 127, 80, 127, 205, 129, 202, 126, 115, 127, 92, 127, 125, 127, 178, 127, 253, 126, 15, 127, 227, 126, 58, 126, 18, 127
27, 32, 39, 0, 77, 0, 3, 0, 171, 8, 154, 194, 57, 7, 109, 0, 123, 252, 0, 0, 0, 0, 0, 0, 0, 0, 0, 0, 0, 0
55, 16, 39, 127, 67, 127, 96, 127, 138, 130, 35, 126, 92, 127, 65, 127, 126, 127, 95, 127, 50, 127, 168, 127, 254, 126, 213, 126, 9, 127
56, 16, 99, 127, 108, 127, 128, 127, 91, 132, 116, 126, 104, 127, 115, 127, 133, 127, 156, 127, 167, 127, 31, 128, 83, 127, 39, 127, 67, 127
28, 32, 63, 0, 31, 0, 233, 255, 80, 8, 252, 193, 127, 7, 104, 0, 120, 252, 0, 0, 0, 0, 0, 0, 0, 0, 0, 0, 0, 0
57, 16, 116, 127, 241, 127, 118, 127, 218, 132, 134, 126, 193, 127, 153, 127, 138, 127, 94, 128, 23, 128, 255, 127, 109, 127, 55, 127, 193, 127
58, 16, 132, 127, 235, 127, 148, 127, 25, 132, 227, 125, 166, 127, 125, 127, 133, 127, 49, 128, 2, 128, 6, 128, 131, 127, 36, 127, 4, 128
29, 32, 62, 0, 215, 255, 96, 0, 244, 7, 64, 194, 179, 7, 112, 0, 130, 252, 0, 0, 0, 0, 0, 0, 0, 0, 0, 0, 0, 0
59, 16, 179, 127, 115, 127, 186, 127, 180, 131, 18, 125, 61, 127, 79, 127, 127, 127, 77, 127, 86, 127, 10, 128, 112, 127, 219, 126, 163, 127
60, 16, 34, 128, 110, 127, 250, 127, 210, 131, 250, 124, 122, 127, 111, 127, 142, 127, 146, 127, 125, 127, 18, 128, 141, 127, 88, 127, 136, 127
30, 32, 63, 0, 201, 255, 157, 0, 53, 8, 87, 194, 77, 7, 107, 0, 123, 252, 0, 0, 0, 0, 0, 0, 0, 0, 0, 0, 0, 0
61, 16, 251, 127, 218, 127, 250, 127, 67, 133, 136, 125, 163, 127, 134, 127, 131, 127, 239, 127, 215, 127, 44, 128, 191, 127, 225, 127, 204, 127
62, 16, 59, 127, 161, 127, 140, 127, 153, 133, 206, 124, 19, 127, 56, 127, 103, 127, 16, 127, 45, 127, 228, 127, 95, 127, 228, 126, 125, 127
31, 32, 71, 0, 142, 255, 209, 0, 56, 8, 208, 194, 102, 7, 115, 0, 133, 252, 0, 0, 0, 0, 0, 0, 0, 0, 0, 0, 0, 0
63, 16, 151, 127, 76, 127, 215, 127, 67, 132, 214, 123, 198, 126, 57, 127, 123, 127, 220, 126, 245, 126, 248, 127, 124, 127, 60, 126, 140, 127
64, 16, 49, 128, 187, 127, 114, 128, 13, 133, 115, 124, 10, 127, 102, 127, 135, 127, 168, 127, 153, 127, 146, 128, 61, 128, 139, 127, 70, 128
32, 32, 88, 0, 110, 255, 189, 0, 84, 8, 53, 195, 104, 7, 112, 0, 129, 252, 0, 0, 0, 0, 0, 0, 0, 0, 0, 0, 0, 0
65, 16, 156, 127, 27, 128, 49, 128, 38, 135, 45, 125, 17, 127, 76, 127, 114, 127, 162, 127, 176, 127, 214, 128, 72, 128, 112, 128, 44, 128
66, 16, 110, 127, 163, 127, 23, 128, 116, 134, 106, 124, 239, 126, 68, 127, 119, 127, 68, 127, 98, 127, 239, 128, 13, 128, 194, 127, 204, 127
33, 32, 70, 0, 52, 255, 122, 0, 41, 8, 129, 195, 178, 7, 111, 0, 126, 252, 0, 0, 0, 0, 0, 0, 0, 0, 0, 0, 0, 0
67, 16, 56, 128, 105, 127, 177, 128, 205, 132, 146, 123, 21, 127, 81, 127, 133, 127, 124, 127, 109, 127, 236, 128, 123, 128, 96, 127, 88, 128
68, 16, 77, 128, 234, 127, 229, 128, 77, 133, 233, 123, 24, 127, 98, 127, 123, 127, 115, 127, 123, 127, 214, 128, 207, 128, 243, 127, 205, 128
34, 32, 97, 0, 40, 255, 64, 0, 66, 8, 161, 195, 101, 7, 129, 0, 116, 252, 0, 0, 0, 0, 0, 0, 0, 0, 0, 0, 0, 0
69, 16, 218, 127, 216, 127, 78, 128, 177, 133, 69, 124, 8, 127, 129, 127, 120, 127, 116, 127, 134, 127, 35, 129, 137, 128, 100, 128, 108, 128
70, 16, 228, 127, 169, 127, 231, 127, 84, 133, 55, 124, 82, 127, 139, 127, 130, 127, 239, 127, 182, 127, 92, 129, 90, 128, 129, 128, 46, 128
35, 32, 151, 0, 41, 255, 190, 255, 59, 8, 16, 195, 38, 7, 118, 0, 137, 252, 0, 0, 0, 0, 0, 0, 0, 0, 0, 0, 0, 0
71, 16, 1, 128, 225, 127, 49, 128, 68, 133, 215, 123, 121, 127, 117, 127, 137, 127, 236, 127, 187, 127, 241, 128, 112, 128, 154, 128, 77, 128
72, 16, 21, 128, 171, 127, 91, 128, 252, 132, 81, 123, 50, 127, 87, 127, 124, 127, 116, 127, 122, 127, 115, 128, 110, 128, 62, 128, 50, 128
36, 32, 147, 0, 39, 255, 124, 255, 23, 8, 173, 194, 148, 7, 119, 0, 149, 252, 0, 0, 0, 0, 0, 0, 0, 0, 0, 0, 0, 0
73, 16, 4, 128, 161, 127, 237, 127, 191, 132, 77, 123, 29, 127, 104, 127, 121, 127, 149, 127, 155, 127, 103, 128, 88, 128, 24, 128, 6, 128
74, 16, 211, 127, 242, 127, 184, 127, 251, 132, 248, 123, 84, 127, 129, 127, 138, 127, 24, 128, 32, 128, 200, 128, 99, 128, 212, 128, 53, 128
37, 32, 136, 0, 99, 255, 78, 255, 250, 7, 61, 194, 104, 7, 119, 0, 131, 252, 0, 0, 0, 0, 0, 0, 0, 0, 0, 0, 0, 0
75, 16, 55, 128, 178, 127, 17, 128, 226, 132, 240, 123, 102, 127, 118, 127, 141, 127, 36, 128, 225, 127, 20, 129, 140, 128, 27, 129, 152, 128
76, 16, 136, 128, 144, 127, 224, 127, 86, 132, 107, 123, 84, 127, 129, 127, 123, 127, 237, 127, 87, 127, 180, 128, 138, 128, 127, 128, 174, 128
38, 32, 97, 0, 103, 255, 78, 255, 24, 8, 195, 194, 149, 7, 112, 0, 131, 252, 0, 0, 0, 0, 0, 0, 0, 0, 0, 0, 0, 0
77, 16, 254, 127, 236, 127, 80, 127, 3, 132, 245, 123, 42, 127, 118, 127, 118, 127, 202, 127, 161, 127, 69, 128, 71, 128, 64, 128, 67, 128
78, 16, 194, 127, 252, 127, 135, 127, 205, 131, 29, 124, 237, 126, 91, 127, 126, 127, 156, 127, 226, 127, 98, 128, 240, 127, 157, 128, 212, 127
39, 32, 100, 0, 167, 255, 104, 255, 25, 7, 88, 194, 90, 7, 110, 0, 122, 252, 0, 0, 0, 0, 0, 0, 0, 0, 0, 0, 0, 0
79, 16, 27, 128, 139, 127, 172, 127, 42, 131, 106, 123, 252, 126, 80, 127, 123, 127, 124, 127, 112, 127, 0, 128, 163, 127, 115, 128, 232, 127
80, 16, 235, 127, 116, 127, 58, 127, 166, 130, 169, 123, 31, 127, 85, 127, 115, 127, 108, 127, 100, 127, 93, 127, 140, 127, 236, 127, 55, 128
40, 32, 82, 0, 195, 255, 154, 255, 30, 7, 57, 194, 33, 7, 117, 0, 126, 252, 0, 0, 0, 0, 0, 0, 0, 0, 0, 0, 0, 0
81, 16, 146, 127, 234, 127, 57, 127, 67, 131, 74, 124, 246, 126, 96, 127, 114, 127, 92, 127, 199, 127, 174, 127, 147, 127, 12, 128, 252, 127
82, 16, 155, 127, 232, 127, 109, 127, 242, 131, 44, 124, 245, 126, 80, 127, 120, 127, 121, 127, 188, 127, 17, 128, 87, 127, 136, 128, 129, 127
41, 32, 73, 0, 28, 0, 108, 0, 5, 8, 141, 195, 176, 7, 107, 0, 115, 252, 0, 0, 0, 0, 0, 0, 0, 0, 0, 0, 0, 0
83, 16, 148, 127, 100, 127, 56, 127, 156, 130, 178, 123, 24, 127, 88, 127, 131, 127, 148, 127, 126, 127, 166, 127, 10, 127, 112, 128, 122, 127
84, 16, 141, 127, 102, 127, 44, 127, 96, 129, 194, 123, 15, 127, 104, 127, 130, 127, 89, 127, 186, 127, 76, 127, 14, 127, 16, 128, 178, 127
42, 32, 78, 0, 22, 0, 144, 0, 109, 8, 21, 196, 33, 7, 115, 0, 139, 252, 0, 0, 0, 0, 0, 0, 0, 0, 0, 0, 0, 0
85, 16, 111, 127, 235, 127, 45, 127, 6, 131, 94, 124, 2, 127, 86, 127, 127, 127, 106, 127, 246, 127, 70, 127, 227, 126, 6, 128, 107, 127
86, 16, 23, 127, 3, 128, 251, 126, 236, 131, 193, 124, 28, 127, 91, 127, 127, 127, 226, 127, 164, 127, 17, 127, 115, 126, 238, 127, 249, 126
43, 32, 124, 0, 34, 0, 24, 0, 12, 9, 170, 195, 81, 7, 113, 0, 124, 252, 0, 0, 0, 0, 0, 0, 0, 0, 0, 0, 0, 0
87, 16, 218, 126, 152, 127, 25, 127, 120, 130, 155, 124, 43, 127, 107, 127, 127, 127, 19, 128, 178, 127, 18, 127, 154, 126, 221, 127, 35, 127
88, 16, 4, 127, 167, 127, 113, 127, 98, 130, 135, 124, 21, 127, 96, 127, 124, 127, 178, 127, 15, 128, 45, 127, 243, 126, 223, 127, 82, 127
44, 32, 153, 0, 15, 0, 215, 255, 224, 8, 69, 194, 71, 7, 107, 0, 126, 252, 0, 0, 0, 0, 0, 0, 0, 0, 0, 0, 0, 0
89, 16, 72, 127, 221, 127, 155, 127, 84, 131, 143, 124, 13, 127, 74, 127, 120, 127, 17, 127, 178, 127, 3, 127, 190, 126, 163, 127, 53, 127
90, 16, 118, 127, 144, 127, 179, 127, 246, 130, 91, 124, 33, 127, 79, 127, 125, 127, 26, 127, 122, 127, 53, 127, 201, 126, 184, 127, 80, 127
45, 32, 162, 0, 241, 255, 228, 255, 92, 8, 47, 194, 83, 7, 109, 0, 135, 252, 0, 0, 0, 0, 0, 0, 0, 0, 0, 0, 0, 0
91, 16, 183, 127, 103, 127, 232, 127, 139, 130, 252, 123, 26, 127, 103, 127, 128, 127, 114, 127, 230, 127, 132, 127, 58, 127, 7, 128, 159, 127
92, 16, 226, 127, 161, 127, 58, 128, 173, 131, 33, 124, 253, 126, 83, 127, 115, 127, 106, 127, 34, 128, 202, 127, 175, 127, 79, 128, 232, 127
46, 32, 167, 0, 235, 255, 33, 0, 54, 8, 72, 194, 77, 7, 117, 0, 126, 252, 0, 0, 0, 0, 0, 0, 0, 0, 0, 0, 0, 0
93, 16, 247, 127, 186, 127, 136, 128, 104, 132, 235, 124, 13, 127, 86, 127, 117, 127, 97, 127, 3, 128, 18, 128, 57, 128, 117, 128, 41, 128
94, 16, 47, 128, 152, 127, 178, 128, 106, 131, 249, 124, 29, 127, 122, 127, 126, 127, 108, 127, 208, 127, 18, 128, 126, 128, 22, 128, 65, 128
47, 32, 144, 0, 214, 255, 89, 0, 37, 8, 115, 194, 84, 7, 110, 0, 133, 252, 0, 0, 0, 0, 0, 0, 0, 0, 0, 0, 0, 0
95, 16, 93, 128, 149, 127, 218, 128, 76, 131, 197, 124, 35, 127, 109, 127, 128, 127, 130, 127, 209, 127, 61, 128, 183, 128, 238, 127, 101, 128
96, 16, 58, 128, 238, 127, 201, 128, 210, 132, 87, 125, 67, 127, 128, 127, 137, 127, 135, 127, 223, 127, 120, 128, 246, 128, 104, 128, 165, 128
48, 32, 122, 0, 212, 255, 121, 0, 128, 7, 180, 194, 198, 7, 115, 0, 136, 252, 0, 0, 0, 0, 0, 0, 0, 0, 0, 0, 0, 0
97, 16, 51, 128, 216, 127, 106, 128, 159, 132, 53, 125, 57, 127, 145, 127, 132, 127, 117, 127, 146, 127, 41, 128, 182, 128, 82, 128, 137, 128
98, 16, 132, 128, 124, 127, 108, 128, 27, 131, 249, 124, 64, 127, 130, 127, 118, 127, 137, 127, 115, 127, 239, 127, 130, 128, 221, 127, 105, 128
49, 32, 140, 0, 243, 255, 215, 0, 156, 7, 59, 195, 134, 7, 113, 0, 124, 252, 0, 0, 0, 0, 0, 0, 0, 0, 0, 0, 0, 0
99, 16, 100, 128, 169, 127, 124, 128, 179, 131, 173, 125, 103, 127, 128, 127, 126, 127, 127, 127, 160, 127, 253, 127, 127, 128, 239, 127, 87, 128
100, 16, 214, 127, 202, 127, 238, 127, 191, 132, 8, 126, 78, 127, 103, 127, 133, 127, 56, 127, 114, 127, 154, 127, 250, 127, 209, 127, 251, 127
50, 32, 165, 0, 4, 0, 209, 0, 207, 7, 20, 195, 204, 7, 104, 0, 138, 252, 0, 0, 0, 0, 0, 0, 0, 0, 0, 0, 0, 0
101, 16, 243, 127, 154, 127, 172, 127, 94, 131, 237, 125, 59, 127, 91, 127, 128, 127, 96, 127, 136, 127, 73, 127, 171, 127, 125, 127, 229, 127
102, 16, 40, 128, 125, 127, 172, 127, 104, 130, 66, 126, 112, 127, 85, 127, 134, 127, 161, 127, 210, 127, 62, 127, 188, 127, 125, 127, 26, 128
51, 32, 157, 0, 28, 0, 224, 0, 36, 8, 220, 194, 139, 7, 117, 0, 126, 252, 0, 0, 0, 0, 0, 0, 0, 0, 0, 0, 0, 0
103, 16, 133, 127, 110, 127, 38, 127, 115, 131, 98, 126, 145, 127, 104, 127, 141, 127, 118, 127, 128, 127, 223, 126, 72, 127, 154, 127, 225, 127
104, 16, 47, 127, 126, 127, 14, 127, 137, 131, 149, 126, 138, 127, 148, 127, 124, 127, 161, 127, 112, 127, 182, 126, 232, 126, 130, 127, 148, 127
52, 32, 169, 0, 12, 0, 204, 0, 21, 8, 215, 194, 138, 7, 118, 0, 133, 252, 0, 0, 0, 0, 0, 0, 0, 0, 0, 0, 0, 0
105, 16, 111, 127, 144, 127, 108, 127, 188, 130, 17, 127, 124, 127, 99, 127, 108, 127, 199, 127, 149, 127, 210, 126, 208, 126, 45, 127, 144, 127
106, 16, 87, 127, 162, 127, 54, 127, 186, 130, 232, 126, 104, 127, 80, 127, 130, 127, 109, 127, 42, 127, 166, 126, 114, 126, 225, 126, 128, 127
53, 32, 173, 0, 13, 0, 170, 0, 254, 7, 195, 194, 91, 7, 119, 0, 125, 252, 0, 0, 0, 0, 0, 0, 0, 0, 0, 0, 0, 0
107, 16, 29, 127, 130, 127, 206, 126, 78, 130, 25, 127, 139, 127, 158, 127, 157, 127, 136, 127, 23, 127, 108, 126, 46, 126, 231, 126, 65, 127
108, 16, 69, 127, 104, 127, 241, 126, 168, 129, 213, 127, 163, 127, 154, 127, 146, 127, 197, 127, 149, 127, 117, 126, 50, 126, 250, 126, 15, 127
54, 32, 173, 0, 1, 0, 158, 0, 23, 8, 90, 194, 71, 7, 113, 0, 139, 252, 0, 0, 0, 0, 0, 0, 0, 0, 0, 0, 0, 0
109, 16, 55, 127, 157, 127, 23, 127, 107, 130, 137, 127, 116, 127, 99, 127, 131, 127, 143, 127, 142, 127, 143, 126, 35, 126, 240, 126, 46, 127
110, 16, 201, 126, 164, 127, 221, 126, 63, 131, 116, 127, 126, 127, 115, 127, 130, 127, 151, 127, 89, 127, 115, 126, 38, 126, 15, 127, 100, 127
55, 32, 161, 0, 233, 255, 157, 0, 119, 7, 117, 194, 176, 7, 122, 0, 142, 252, 0, 0, 0, 0, 0, 0, 0, 0, 0, 0, 0, 0
111, 16, 233, 126, 145, 127, 5, 127, 119, 130, 77, 128, 153, 127, 148, 127, 132, 127, 189, 127, 152, 127, 64, 126, 68, 126, 16, 127, 98, 127
112, 16, 37, 127, 125, 127, 50, 127, 157, 129, 58, 128, 114, 127, 109, 127, 131, 127, 98, 127, 105, 127, 254, 125, 1, 126, 173, 126, 27, 127
56, 32, 135, 0, 248, 255, 165, 0, 29, 7, 121, 194, 170, 7, 115, 0, 136, 252, 0, 0, 0, 0, 0, 0, 0, 0, 0, 0, 0, 0
113, 16, 0, 127, 103, 127, 240, 126, 27, 130, 207, 127, 100, 127, 74, 127, 122, 127, 37, 127, 195, 126, 231, 125, 150, 125, 105, 126, 248, 126
114, 16, 46, 127, 154, 127, 30, 127, 217, 130, 121, 128, 115, 127, 99, 127, 122, 127, 73, 127, 202, 126, 5, 126, 149, 125, 131, 126, 43, 127
57, 32, 143, 0, 248, 255, 195, 0, 126, 7, 75, 194, 145, 7, 116, 0, 144, 252, 0, 0, 0, 0, 0, 0, 0, 0, 0, 0, 0, 0
115, 16, 72, 127, 159, 127, 100, 127, 55, 130, 180, 128, 133, 127, 97, 127, 133, 127, 64, 127, 38, 127, 19, 126, 180, 125, 114, 126, 11, 127
116, 16, 148, 126, 122, 127, 244, 126, 31, 129, 95, 128, 118, 127, 86, 127, 133, 127, 245, 126, 211, 126, 247, 125, 138, 125, 2, 126, 164, 126
58, 32, 130, 0, 4, 0, 227, 0, 151, 7, 139, 194, 191, 7, 119, 0, 134, 252, 0, 0, 0, 0, 0, 0, 0, 0, 0, 0, 0, 0
117, 16, 53, 126, 127, 127, 171, 126, 96, 129, 6, 129, 67, 127, 107, 127, 125, 127, 228, 126, 138, 126, 3, 126, 130, 125, 251, 125, 180, 126
118, 16, 242, 126, 140, 127, 23, 127, 209, 129, 93, 129, 59, 127, 108, 127, 133, 127, 20, 127, 195, 126, 36, 126, 177, 125, 28, 126, 234, 126
59, 32, 98, 0, 3, 0, 212, 0, 118, 7, 164, 194, 138, 7, 126, 0, 133, 252, 0, 0, 0, 0, 0, 0, 0, 0, 0, 0, 0, 0
119, 16, 82, 127, 140, 127, 65, 127, 0, 129, 172, 128, 88, 127, 106, 127, 135, 127, 11, 127, 166, 126, 6, 126, 142, 125, 169, 125, 140, 126
120, 16, 1, 127, 132, 127, 27, 127, 87, 128, 16, 129, 127, 127, 140, 127, 131, 127, 1, 127, 150, 126, 7, 126, 120, 125, 135, 125, 150, 126
60, 32, 78, 0, 6, 0, 178, 0, 112, 7, 141, 194, 220, 7, 124, 0, 143, 252, 0, 0, 0, 0, 0, 0, 0, 0, 0, 0, 0, 0
121, 16, 228, 126, 152, 127, 45, 127, 207, 128, 144, 129, 138, 127, 174, 127, 136, 127, 53, 127, 4, 127, 37, 126, 178, 125, 26, 126, 1, 127
122, 16, 224, 126, 157, 127, 24, 127, 229, 128, 209, 128, 118, 127, 130, 127, 130, 127, 111, 127, 33, 127, 247, 125, 155, 125, 31, 126, 183, 126
61, 32, 71, 0, 19, 0, 137, 0, 73, 7, 97, 194, 63, 7, 127, 0, 142, 252, 0, 0, 0, 0, 0, 0, 0, 0, 0, 0, 0, 0
123, 16, 232, 126, 110, 127, 246, 126, 141, 128, 164, 128, 111, 127, 85, 127, 118, 127, 133, 127, 245, 126, 15, 126, 108, 125, 238, 125, 135, 126
124, 16, 50, 127, 117, 127, 29, 127, 191, 128, 166, 129, 136, 127, 121, 127, 129, 127, 118, 127, 243, 126, 83, 126, 189, 125, 92, 126, 9, 127
62, 32, 39, 0, 17, 0, 125, 0, 68, 7, 160, 194, 153, 7, 127, 0, 132, 252, 0, 0, 0, 0, 0, 0, 0, 0, 0, 0, 0, 0
125, 16, 109, 127, 136, 127, 48, 127, 117, 128, 212, 129, 141, 127, 117, 127, 146, 127, 122, 127, 252, 126, 23, 126, 17, 126, 105, 126, 84, 127
126, 16, 141, 127, 150, 127, 94, 127, 150, 127, 208, 128, 116, 127, 77, 127, 138, 127, 144, 127, 25, 127, 2, 126, 25, 126, 7, 126, 64, 127
63, 32, 28, 0, 19, 0, 115, 0, 156, 7, 13, 195, 94, 7, 123, 0, 136, 252, 0, 0, 0, 0, 0, 0, 0, 0, 0, 0, 0, 0
127, 16, 153, 127, 165, 127, 169, 127, 63, 127, 186, 128, 129, 127, 99, 127, 128, 127, 157, 127, 96, 127, 131, 126, 56, 126, 26, 126, 62, 127
0, 16, 79, 127, 131, 127, 115, 127, 231, 126, 122, 129, 141, 127, 105, 127, 133, 127, 138, 127, 117, 127, 197, 126, 38, 126, 44, 126, 17, 127
0, 32, 47, 0, 25, 0, 75, 0, 128, 7, 138, 194, 111, 7, 132, 0, 141, 252, 0, 0, 0, 0, 0, 0, 0, 0, 0, 0, 0, 0
1, 16, 77, 127, 117, 127, 72, 127, 62, 126, 153, 129, 170, 127, 123, 127, 138, 127, 134, 127, 104, 127, 206, 126, 253, 125, 55, 126, 240, 126
2, 16, 139, 127, 154, 127, 129, 127, 140, 126, 77, 129, 221, 127, 157, 127, 129, 127, 157, 127, 133, 127, 14, 127, 80, 126, 172, 126, 54, 127
1, 32, 50, 0, 27, 0, 61, 0, 16, 7, 104, 194, 121, 7, 134, 0, 128, 252, 0, 0, 0, 0, 0, 0, 0, 0, 0, 0, 0, 0
3, 16, 96, 127, 176, 127, 119, 127, 205, 126, 86, 129, 210, 127, 142, 127, 118, 127, 138, 127, 130, 127, 33, 127, 119, 126, 224, 126, 75, 127
4, 16, 38, 127, 138, 127, 65, 127, 243, 125, 129, 129, 143, 127, 90, 127, 117, 127, 127, 127, 81, 127, 249, 126, 20, 126, 147, 126, 4, 127
2, 32, 5, 0, 255, 255, 114, 0, 65, 7, 187, 194, 89, 7, 126, 0, 132, 252, 0, 0, 0, 0, 0, 0, 0, 0, 0, 0, 0, 0
5, 16, 107, 127, 127, 127, 113, 127, 250, 125, 151, 129, 137, 127, 96, 127, 132, 127, 167, 127, 122, 127, 37, 127, 52, 126, 150, 126, 28, 127
6, 16, 186, 127, 195, 127, 175, 127, 29, 126, 87, 129, 131, 127, 147, 127, 142, 127, 87, 127, 112, 127, 51, 127, 166, 126, 191, 126, 137, 127
3, 32, 41, 0, 15, 0, 122, 0, 16, 7, 170, 194, 109, 7, 134, 0, 129, 252, 0, 0, 0, 0, 0, 0, 0, 0, 0, 0, 0, 0
7, 16, 121, 127, 179, 127, 123, 127, 27, 125, 234, 128, 35, 127, 99, 127, 123, 127, 167, 126, 210, 126, 205, 126, 130, 126, 139, 126, 130, 127
8, 16, 113, 127, 114, 127, 101, 127, 252, 124, 85, 129, 32, 127, 90, 127, 120, 127, 228, 126, 190, 126, 186, 126, 111, 126, 164, 126, 111, 127
4, 32, 27, 0, 27, 0, 143, 0, 80, 7, 93, 194, 65, 7, 125, 0, 150, 252, 0, 0, 0, 0, 0, 0, 0, 0, 0, 0, 0, 0
9, 16, 182, 127, 123, 127, 158, 127, 2, 126, 244, 129, 142, 127, 198, 127, 132, 127, 147, 127, 109, 127, 29, 127, 146, 126, 24, 127, 126, 127
10, 16, 115, 127, 140, 127, 119, 127, 34, 126, 120, 129, 128, 127, 166, 127, 127, 127, 90, 127, 170, 127, 48, 127, 67, 126, 224, 126, 24, 127
5, 32, 41, 0, 44, 0, 144, 0, 105, 7, 87, 194, 76, 7, 126, 0, 119, 252, 0, 0, 0, 0, 0, 0, 0, 0, 0, 0, 0, 0
11, 16, 226, 126, 155, 127, 15, 127, 55, 125, 232, 128, 37, 127, 94, 127, 129, 127, 235, 126, 81, 127, 207, 126, 241, 125, 90, 126, 179, 126
12, 16, 199, 126, 120, 127, 17, 127, 151, 124, 42, 129, 102, 127, 171, 127, 136, 127, 67, 127, 96, 127, 222, 126, 254, 125, 175, 126, 237, 126
6, 32, 43, 0, 30, 0, 131, 0, 47, 7, 82, 194, 137, 7, 130, 0, 138, 252, 0, 0, 0, 0, 0, 0, 0, 0, 0, 0, 0, 0
13, 16, 71, 127, 68, 127, 116, 127, 210, 124, 22, 129, 163, 127, 231, 127, 142, 127, 168, 127, 203, 127, 97, 127, 54, 126, 62, 127, 80, 127
14, 16, 149, 127, 143, 127, 155, 127, 200, 125, 184, 128, 66, 127, 184, 127, 145, 127, 116, 127, 162, 127, 106, 127, 133, 126, 7, 127, 115, 127
7, 32, 39, 0, 23, 0, 119, 0, 21, 7, 93, 194, 169, 7, 131, 0, 116, 252, 0, 0, 0, 0, 0, 0, 0, 0, 0, 0, 0, 0
15, 16, 113, 127, 194, 127, 136, 127, 47, 126, 58, 129, 62, 127, 146, 127, 138, 127, 96, 127, 68, 127, 79, 127, 188, 126, 222, 126, 131, 127
16, 16, 80, 127, 150, 127, 128, 127, 172, 125, 145, 129, 109, 127, 147, 127, 135, 127, 152, 127, 91, 127, 109, 127, 165, 126, 32, 127, 133, 127
8, 32, 36, 0, 69, 0, 148, 0, 107, 7, 83, 194, 31, 7, 121, 0, 119, 252, 0, 0, 0, 0, 0, 0, 0, 0, 0, 0, 0, 0
17, 16, 140, 127, 106, 127, 146, 127, 91, 125, 241, 128, 81, 127, 143, 127, 133, 127, 122, 127, 133, 127, 90, 127, 171, 126, 253, 126, 132, 127
18, 16, 195, 127, 118, 127, 160, 127, 59, 125, 197, 128, 105, 127, 146, 127, 126, 127, 19, 127, 114, 127, 15, 127, 222, 126, 161, 126, 132, 127
9, 32, 14, 0, 49, 0, 124, 0, 181, 7, 142, 194, 52, 7, 129, 0, 124, 252, 0, 0, 0, 0, 0, 0, 0, 0, 0, 0, 0, 0
19, 16, 120, 127, 176, 127, 119, 127, 99, 125, 78, 129, 114, 127, 125, 127, 124, 127, 249, 126, 68, 127, 18, 127, 189, 126, 201, 126, 98, 127
20, 16, 50, 127, 152, 127, 83, 127, 159, 125, 247, 128, 57, 127, 95, 127, 121, 127, 38, 127, 43, 127, 76, 127, 130, 126, 1, 127, 96, 127
10, 32, 3, 0, 4, 0, 71, 0, 13, 7, 165, 194, 82, 7, 138, 0, 126, 252, 0, 0, 0, 0, 0, 0, 0, 0, 0, 0, 0, 0
21, 16, 87, 127, 107, 127, 132, 127, 119, 125, 52, 128, 56, 127, 141, 127, 114, 127, 9, 127, 20, 127, 32, 127, 126, 126, 190, 126, 120, 127
22, 16, 116, 127, 95, 127, 151, 127, 103, 125, 95, 128, 77, 127, 143, 127, 116, 127, 207, 126, 253, 126, 213, 126, 141, 126, 181, 126, 112, 127
11, 32, 245, 255, 250, 255, 49, 0, 30, 7, 28, 195, 24, 7, 129, 0, 125, 252, 0, 0, 0, 0, 0, 0, 0, 0, 0, 0, 0, 0
23, 16, 111, 127, 105, 127, 108, 127, 109, 125, 166, 128, 18, 127, 76, 127, 127, 127, 239, 126, 54, 127, 19, 127, 183, 126, 252, 126, 127, 127
24, 16, 144, 127, 155, 127, 156, 127, 55, 125, 90, 128, 9, 127, 121, 127, 126, 127, 39, 127, 138, 127, 189, 127, 29, 127, 42, 127, 247, 127
12, 32, 248, 255, 248, 255, 35, 0, 22, 7, 22, 195, 86, 7, 123, 0, 126, 252, 0, 0, 0, 0, 0, 0, 0, 0, 0, 0, 0, 0
25, 16, 132, 127, 149, 127, 190, 127, 7, 125, 3, 128, 63, 127, 168, 127, 123, 127, 31, 127, 87, 127, 224, 127, 63, 127, 43, 127, 55, 128
26, 16, 77, 127, 99, 127, 127, 127, 34, 125, 239, 127, 47, 127, 131, 127, 128, 127, 25, 127, 239, 126, 81, 127, 206, 126, 224, 126, 187, 127
13, 32, 15, 0, 247, 255, 26, 0, 200, 6, 162, 194, 12, 7, 130, 0, 126, 252, 0, 0, 0, 0, 0, 0, 0, 0, 0, 0, 0, 0
27, 16, 106, 127, 95, 127, 136, 127, 117, 125, 50, 128, 57, 127, 138, 127, 130, 127, 119, 127, 74, 127, 62, 127, 186, 126, 204, 126, 155, 127
28, 16, 134, 127, 136, 127, 140, 127, 151, 125, 14, 128, 53, 127, 131, 127, 127, 127, 130, 127, 172, 127, 149, 127, 5, 127, 17, 127, 242, 127
14, 32, 72, 0, 19, 0, 41, 0, 238, 6, 173, 194, 0, 7, 128, 0, 124, 252, 0, 0, 0, 0, 0, 0, 0, 0, 0, 0, 0, 0
29, 16, 122, 127, 154, 127, 121, 127, 85, 125, 124, 127, 11, 127, 112, 127, 125, 127, 250, 126, 114, 127, 171, 127, 9, 127, 36, 127, 249, 127
30, 16, 184, 127, 111, 127, 168, 127, 246, 124, 103, 127, 42, 127, 134, 127, 121, 127, 7, 127, 107, 127, 151, 127, 44, 127, 5, 127, 34, 128
15, 32, 62, 0, 11, 0, 61, 0, 51, 7, 96, 194, 121, 7, 148, 0, 175, 252, 0, 0, 0, 0, 0, 0, 0, 0, 0, 0, 0, 0
31, 16, 234, 127, 154, 127, 206, 127, 45, 125, 157, 127, 56, 127, 149, 127, 126, 127, 104, 127, 142, 127, 155, 127, 114, 127, 8, 127, 99, 128
32, 16, 154, 127, 183, 127, 164, 127, 195, 125, 136, 127, 17, 127, 137, 127, 134, 127, 94, 127, 114, 127, 178, 127, 92, 127, 42, 127, 29, 128
16, 32, 68, 0, 31, 0, 70, 0, 81, 7, 73, 194, 26, 7, 127, 0, 131, 252, 0, 0, 0, 0, 0, 0, 0, 0, 0, 0, 0, 0
33, 16, 105, 127, 76, 127, 100, 127, 78, 125, 99, 127, 32, 127, 120, 127, 132, 127, 94, 127, 134, 127, 141, 127, 25, 127, 19, 127, 213, 127
34, 16, 147, 127, 94, 127, 87, 127, 112, 124, 114, 127, 108, 127, 168, 127, 131, 127, 155, 127, 199, 127, 84, 127, 24, 127, 210, 126, 4, 128
17, 32, 75, 0, 36, 0, 74, 0, 250, 6, 120, 194, 247, 6, 131, 0, 118, 252, 0, 0, 0, 0, 0, 0, 0, 0, 0, 0, 0, 0
35, 16, 141, 127, 171, 127, 103, 127, 185, 124, 152, 127, 137, 127, 179, 127, 132, 127, 142, 127, 199, 127, 126, 127, 24, 127, 204, 126, 11, 128
36, 16, 115, 127, 129, 127, 151, 127, 203, 124, 133, 127, 118, 127, 160, 127, 134, 127, 100, 127, 151, 127, 180, 127, 232, 126, 242, 126, 243, 127
18, 32, 72, 0, 29, 0, 77, 0, 234, 6, 117, 194, 192, 6, 126, 0, 128, 252, 0, 0, 0, 0, 0, 0, 0, 0, 0, 0, 0, 0
37, 16, 130, 127, 110, 127, 167, 127, 18, 124, 109, 127, 117, 127, 157, 127, 138, 127, 135, 127, 115, 127, 100, 127, 213, 126, 236, 126, 251, 127
38, 16, 96, 127, 125, 127, 87, 127, 234, 123, 116, 127, 119, 127, 126, 127, 129, 127, 146, 127, 94, 127, 30, 127, 235, 126, 204, 126, 184, 127
19, 32, 82, 0, 37, 0, 90, 0, 50, 7, 43, 194, 44, 7, 133, 0, 121, 252, 0, 0, 0, 0, 0, 0, 0, 0, 0, 0, 0, 0
39, 16, 53, 127, 121, 127, 62, 127, 247, 123, 56, 127, 135, 127, 121, 127, 133, 127, 77, 127, 113, 127, 109, 127, 249, 126, 242, 126, 121, 127
40, 16, 67, 127, 109, 127, 145, 127, 23, 124, 35, 127, 118, 127, 133, 127, 145, 127, 69, 127, 154, 127, 196, 127, 8, 127, 27, 127, 204, 127
20, 32, 58, 0, 14, 0, 67, 0, 247, 6, 14, 195, 24, 7, 129, 0, 123, 252, 0, 0, 0, 0, 0, 0, 0, 0, 0, 0, 0, 0
41, 16, 73, 127, 90, 127, 149, 127, 52, 124, 49, 127, 52, 127, 149, 127, 127, 127, 129, 127, 132, 127, 159, 127, 247, 126, 201, 126, 234, 127
42, 16, 29, 127, 100, 127, 58, 127, 144, 123, 164, 126, 45, 127, 145, 127, 113, 127, 131, 127, 95, 127, 98, 127, 206, 126, 107, 126, 134, 127
21, 32, 52, 0, 15, 0, 39, 0, 173, 6, 198, 194, 10, 7, 129, 0, 123, 252, 0, 0, 0, 0, 0, 0, 0, 0, 0, 0, 0, 0
43, 16, 23, 127, 161, 127, 96, 127, 153, 123, 198, 126, 133, 127, 141, 127, 126, 127, 124, 127, 138, 127, 145, 127, 255, 126, 173, 126, 153, 127
44, 16, 47, 127, 167, 127, 177, 127, 196, 124, 123, 127, 161, 127, 168, 127, 122, 127, 136, 127, 146, 127, 122, 127, 37, 127, 237, 126, 214, 127
22, 32, 119, 0, 36, 0, 87, 0, 177, 6, 30, 194, 120, 7, 139, 0, 126, 252, 0, 0, 0, 0, 0, 0, 0, 0, 0, 0, 0, 0
45, 16, 25, 127, 75, 127, 127, 127, 173, 124, 45, 127, 129, 127, 170, 127, 118, 127, 110, 127, 97, 127, 41, 127, 216, 126, 185, 126, 133, 127
46, 16, 40, 127, 128, 127, 133, 127, 150, 123, 49, 127, 171, 127, 179, 127, 129, 127, 159, 127, 133, 127, 83, 127, 234, 126, 217, 126, 102, 127
23, 32, 104, 0, 46, 0, 107, 0, 9, 7, 250, 193, 31, 7, 147, 0, 128, 252, 0, 0, 0, 0, 0, 0, 0, 0, 0, 0, 0, 0
47, 16, 32, 127, 169, 127, 158, 127, 163, 123, 122, 127, 145, 127, 173, 127, 125, 127, 152, 127, 130, 127, 71, 127, 15, 127, 216, 126, 128, 127
48, 16, 223, 126, 53, 127, 69, 127, 98, 124, 182, 126, 67, 127, 121, 127, 120, 127, 35, 127, 59, 127, 225, 126, 198, 126, 130, 126, 90, 127
24, 32, 110, 0, 33, 0, 159, 0, 70, 7, 251, 193, 190, 6, 131, 0, 105, 252, 0, 0, 0, 0, 0, 0, 0, 0, 0, 0, 0, 0
49, 16, 27, 127, 139, 127, 118, 127, 223, 124, 209, 126, 128, 127, 166, 127, 139, 127, 104, 127, 140, 127, 240, 126, 31, 127, 194, 126, 156, 127
50, 16, 137, 127, 230, 127, 227, 127, 201, 124, 168, 127, 192, 127, 216, 127, 139, 127, 201, 127, 237, 127, 32, 127, 160, 127, 234, 126, 234, 127
25, 32, 107, 0, 12, 0, 151, 0, 47, 7, 93, 194, 171, 6, 132, 0, 112, 252, 0, 0, 0, 0, 0, 0, 0, 0, 0, 0, 0, 0
51, 16, 116, 127, 83, 127, 186, 127, 42, 124, 24, 127, 121, 127, 136, 127, 120, 127, 76, 127, 156, 127, 48, 127, 67, 127, 170, 126, 162, 127
52, 16, 43, 127, 69, 127, 134, 127, 248, 123, 254, 126, 69, 127, 114, 127, 128, 127, 253, 126, 82, 127, 147, 127, 247, 126, 189, 126, 99, 127
26, 32, 67, 0, 222, 255, 96, 0, 246, 6, 134, 194, 250, 6, 142, 0, 114, 252, 0, 0, 0, 0, 0, 0, 0, 0, 0, 0, 0, 0
53, 16, 14, 127, 175, 127, 117, 127, 129, 124, 183, 127, 97, 127, 152, 127, 139, 127, 73, 127, 127, 127, 184, 127, 233, 126, 220, 126, 54, 127
54, 16, 5, 127, 174, 127, 98, 127, 160, 124, 215, 126, 41, 127, 111, 127, 127, 127, 32, 127, 133, 127, 43, 127, 170, 126, 165, 126, 1, 127
27, 32, 76, 0, 217, 255, 74, 0, 170, 6, 123, 194, 4, 7, 148, 0, 121, 252, 0, 0, 0, 0, 0, 0, 0, 0, 0, 0, 0, 0
55, 16, 67, 127, 121, 127, 167, 127, 9, 124, 68, 126, 2, 127, 93, 127, 125, 127, 220, 126, 80, 127, 48, 127, 232, 126, 194, 126, 79, 127
56, 16, 149, 127, 93, 127, 223, 127, 54, 124, 115, 127, 90, 127, 173, 127, 139, 127, 66, 127, 87, 127, 204, 127, 88, 127, 6, 127, 188, 127
28, 32, 77, 0, 222, 255, 107, 0, 134, 6, 163, 194, 235, 6, 142, 0, 123, 252, 0, 0, 0, 0, 0, 0, 0, 0, 0, 0, 0, 0
57, 16, 135, 127, 128, 127, 165, 127, 187, 124, 101, 127, 153, 127, 218, 127, 137, 127, 120, 127, 120, 127, 204, 127, 45, 127, 244, 126, 145, 127
58, 16, 105, 127, 192, 127, 112, 127, 181, 124, 126, 126, 152, 127, 169, 127, 121, 127, 68, 127, 134, 127, 163, 127, 50, 127, 10, 127, 156, 127
29, 32, 102, 0, 235, 255, 84, 0, 60, 6, 171, 194, 195, 6, 136, 0, 126, 252, 0, 0, 0, 0, 0, 0, 0, 0, 0, 0, 0, 0
59, 16, 135, 127, 160, 127, 160, 127, 225, 124, 38, 127, 122, 127, 155, 127, 132, 127, 42, 127, 124, 127, 207, 127, 118, 127, 40, 127, 244, 127
60, 16, 138, 127, 74, 127, 196, 127, 234, 124, 124, 127, 61, 127, 151, 127, 139, 127, 52, 127, 96, 127, 178, 127, 62, 127, 14, 127, 205, 127
30, 32, 128, 0, 223, 255, 110, 0, 150, 6, 93, 194, 232, 6, 141, 0, 133, 252, 0, 0, 0, 0, 0, 0, 0, 0, 0, 0, 0, 0
61, 16, 84, 127, 105, 127, 150, 127, 103, 124, 108, 126, 16, 127, 140, 127, 123, 127, 18, 127, 56, 127, 100, 127, 12, 127, 7, 127, 119, 127
62, 16, 88, 127, 171, 127, 142, 127, 89, 124, 25, 126, 27, 127, 151, 127, 121, 127, 219, 126, 62, 127, 116, 127, 35, 127, 4, 127, 120, 127
31, 32, 121, 0, 225, 255, 114, 0, 165, 6, 104, 194, 185, 6, 149, 0, 120, 252, 0, 0, 0, 0, 0, 0, 0, 0, 0, 0, 0, 0
63, 16, 92, 127, 149, 127, 176, 127, 29, 125, 212, 126, 38, 127, 135, 127, 129, 127, 44, 127, 137, 127, 151, 127, 58, 127, 1, 127, 148, 127
64, 16, 75, 127, 192, 127, 157, 127, 115, 125, 65, 127, 33, 127, 162, 127, 130, 127, 113, 127, 127, 127, 167, 127, 81, 127, 45, 127, 163, 127
32, 32, 125, 0, 225, 255, 74, 0, 177, 6, 72, 194, 235, 6, 149, 0, 117, 252, 0, 0, 0, 0, 0, 0, 0, 0, 0, 0, 0, 0
65, 16, 111, 127, 200, 127, 156, 127, 165, 124, 234, 126, 22, 127, 174, 127, 128, 127, 5, 127, 62, 127, 181, 127, 63, 127, 71, 127, 158, 127
66, 16, 153, 127, 123, 127, 199, 127, 75, 124, 132, 126, 0, 127, 104, 127, 124, 127, 201, 126, 59, 127, 127, 127, 16, 127, 25, 127, 124, 127
33, 32, 113, 0, 2, 0, 48, 0, 176, 6, 60, 194, 36, 7, 135, 0, 119, 252, 0, 0, 0, 0, 0, 0, 0, 0, 0, 0, 0, 0
67, 16, 126, 127, 171, 127, 194, 127, 103, 125, 212, 126, 25, 127, 117, 127, 126, 127, 46, 127, 71, 127, 128, 127, 54, 127, 24, 127, 139, 127
68, 16, 18, 127, 198, 127, 118, 127, 218, 125, 43, 127, 32, 127, 149, 127, 127, 127, 6, 127, 37, 127, 173, 127, 61, 127, 22, 127, 151, 127
34, 32, 101, 0, 0, 0, 34, 0, 71, 6, 35, 194, 248, 6, 143, 0, 140, 252, 0, 0, 0, 0, 0, 0, 0, 0, 0, 0, 0, 0
69, 16, 244, 126, 113, 127, 125, 127, 169, 124, 195, 126, 243, 126, 108, 127, 123, 127, 112, 126, 6, 127, 147, 127, 5, 127, 241, 126, 108, 127
70, 16, 53, 127, 95, 127, 211, 127, 91, 124, 142, 126, 230, 126, 83, 127, 120, 127, 149, 126, 251, 126, 105, 127, 21, 127, 15, 127, 113, 127
35, 32, 101, 0, 13, 0, 55, 0, 110, 6, 57, 194, 21, 7, 166, 0, 130, 252, 0, 0, 0, 0, 0, 0, 0, 0, 0, 0, 0, 0
71, 16, 71, 127, 146, 127, 226, 127, 138, 125, 16, 127, 16, 127, 92, 127, 124, 127, 3, 127, 19, 127, 133, 127, 61, 127, 97, 127, 146, 127
72, 16, 70, 127, 194, 127, 219, 127, 214, 125, 81, 127, 45, 127, 123, 127, 133, 127, 7, 127, 69, 127, 204, 127, 88, 127, 127, 127, 148, 127
36, 32, 99, 0, 10, 0, 69, 0, 154, 6, 100, 194, 39, 7, 155, 0, 118, 252, 0, 0, 0, 0, 0, 0, 0, 0, 0, 0, 0, 0
73, 16, 115, 127, 170, 127, 221, 127, 36, 125, 34, 127, 50, 127, 121, 127, 125, 127, 222, 126, 93, 127, 247, 127, 122, 127, 60, 127, 149, 127
74, 16, 143, 127, 120, 127, 233, 127, 68, 125, 25, 127, 31, 127, 102, 127, 121, 127, 224, 126, 83, 127, 251, 127, 138, 127, 35, 127, 169, 127
37, 32, 97, 0, 245, 255, 90, 0, 145, 6, 64, 194, 212, 6, 139, 0, 120, 252, 0, 0, 0, 0, 0, 0, 0, 0, 0, 0, 0, 0
75, 16, 139, 127, 126, 127, 233, 127, 141, 125, 24, 127, 230, 126, 133, 127, 131, 127, 239, 126, 69, 127, 231, 127, 126, 127, 138, 127, 179, 127
76, 16, 110, 127, 156, 127, 154, 127, 254, 124, 212, 126, 215, 126, 143, 127, 135, 127, 198, 126, 18, 127, 159, 127, 41, 127, 147, 127, 111, 127
38, 32, 93, 0, 11, 0, 85, 0, 162, 6, 65, 194, 229, 6, 149, 0, 133, 252, 0, 0, 0, 0, 0, 0, 0, 0, 0, 0, 0, 0
77, 16, 72, 127, 175, 127, 117, 127, 248, 124, 218, 126, 1, 127, 129, 127, 125, 127, 177, 126, 242, 126, 75, 127, 220, 126, 3, 127, 44, 127
78, 16, 99, 127, 165, 127, 165, 127, 199, 125, 130, 127, 53, 127, 145, 127, 124, 127, 21, 127, 44, 127, 134, 127, 59, 127, 6, 127, 117, 127
39, 32, 76, 0, 243, 255, 38, 0, 108, 6, 12, 194, 119, 6, 136, 0, 109, 252, 0, 0, 0, 0, 0, 0, 0, 0, 0, 0, 0, 0
79, 16, 133, 127, 170, 127, 198, 127, 186, 125, 90, 127, 46, 127, 163, 127, 135, 127, 48, 127, 79, 127, 232, 127, 132, 127, 134, 127, 189, 127
80, 16, 33, 127, 164, 127, 149, 127, 23, 125, 120, 126, 200, 126, 113, 127, 137, 127, 157, 126, 8, 127, 161, 127, 22, 127, 122, 127, 103, 127
40, 32, 68, 0, 242, 255, 38, 0, 135, 6, 31, 194, 236, 6, 157, 0, 109, 252, 0, 0, 0, 0, 0, 0, 0, 0, 0, 0, 0, 0
81, 16, 237, 126, 95, 127, 96, 127, 61, 125, 197, 126, 149, 126, 67, 127, 135, 127, 115, 126, 225, 126, 113, 127, 4, 127, 96, 127, 64, 127
82, 16, 109, 127, 124, 127, 166, 127, 128, 125, 142, 127, 225, 126, 141, 127, 130, 127, 240, 126, 33, 127, 227, 127, 139, 127, 155, 127, 153, 127
41, 32, 70, 0, 230, 255, 50, 0, 95, 6, 10, 194, 162, 6, 147, 0, 118, 252, 0, 0, 0, 0, 0, 0, 0, 0, 0, 0, 0, 0
83, 16, 168, 127, 190, 127, 251, 127, 144, 125, 50, 127, 56, 127, 186, 127, 116, 127, 56, 127, 130, 127, 7, 128, 162, 127, 135, 127, 172, 127
84, 16, 109, 127, 159, 127, 222, 127, 183, 125, 226, 126, 22, 127, 159, 127, 124, 127, 7, 127, 143, 127, 184, 127, 93, 127, 80, 127, 124, 127
42, 32, 72, 0, 239, 255, 54, 0, 131, 6, 219, 193, 156, 6, 146, 0, 115, 252, 0, 0, 0, 0, 0, 0, 0, 0, 0, 0, 0, 0
85, 16, 93, 127, 125, 127, 179, 127, 102, 125, 90, 127, 248, 126, 175, 127, 136, 127, 234, 126, 79, 127, 216, 127, 113, 127, 106, 127, 129, 127
86, 16, 124, 127, 134, 127, 217, 127, 102, 125, 125, 127, 49, 127, 173, 127, 120, 127, 13, 127, 105, 127, 46, 128, 149, 127, 152, 127, 164, 127
43, 32, 58, 0, 206, 255, 96, 0, 59, 6, 1, 194, 80, 6, 133, 0, 189, 252, 0, 0, 0, 0, 0, 0, 0, 0, 0, 0, 0, 0
87, 16, 141, 127, 170, 127, 208, 127, 196, 125, 26, 127, 58, 127, 137, 127, 111, 127, 9, 127, 140, 127, 240, 127, 82, 127, 171, 127, 124, 127
88, 16, 66, 127, 139, 127, 99, 127, 60, 125, 248, 126, 251, 126, 110, 127, 123, 127, 242, 126, 68, 127, 133, 127, 243, 126, 120, 127, 42, 127
44, 32, 73, 0, 195, 255, 94, 0, 25, 6, 15, 194, 42, 6, 148, 0, 119, 252, 0, 0, 0, 0, 0, 0, 0, 0, 0, 0, 0, 0
89, 16, 4, 127, 97, 127, 94, 127, 149, 124, 89, 127, 233, 126, 143, 127, 130, 127, 5, 127, 42, 127, 133, 127, 242, 126, 21, 127, 31, 127
90, 16, 18, 127, 152, 127, 156, 127, 241, 124, 158, 127, 24, 127, 201, 127, 137, 127, 217, 126, 69, 127, 154, 127, 247, 126, 253, 126, 47, 127
45, 32, 63, 0, 175, 255, 50, 0, 251, 5, 182, 193, 198, 5, 152, 0, 128, 252, 0, 0, 0, 0, 0, 0, 0, 0, 0, 0, 0, 0
91, 16, 232, 126, 154, 127, 84, 127, 77, 125, 53, 127, 33, 127, 152, 127, 131, 127, 141, 126, 16, 127, 53, 127, 151, 126, 25, 127, 234, 126
92, 16, 204, 126, 92, 127, 25, 127, 168, 124, 141, 126, 224, 126, 85, 127, 122, 127, 181, 126, 230, 126, 223, 126, 83, 126, 255, 126, 188, 126
46, 32, 90, 0, 179, 255, 40, 0, 40, 6, 118, 192, 37, 5, 141, 0, 122, 252, 0, 0, 0, 0, 0, 0, 0, 0, 0, 0, 0, 0
93, 16, 40, 127, 107, 127, 99, 127, 135, 124, 197, 126, 228, 126, 128, 127, 127, 127, 21, 127, 97, 127, 59, 127, 151, 126, 12, 127, 33, 127
94, 16, 95, 127, 181, 127, 183, 127, 93, 125, 197, 127, 106, 127, 211, 127, 134, 127, 90, 127, 216, 127, 161, 127, 13, 127, 110, 127, 156, 127
47, 32, 55, 0, 161, 255, 26, 0, 78, 6, 5, 192, 226, 4, 142, 0, 121, 252, 0, 0, 0, 0, 0, 0, 0, 0, 0, 0, 0, 0
95, 16, 33, 127, 161, 127, 177, 127, 13, 125, 171, 127, 132, 127, 195, 127, 133, 127, 112, 127, 184, 127, 155, 127, 48, 127, 133, 127, 148, 127
96, 16, 248, 126, 90, 127, 121, 127, 73, 124, 181, 126, 10, 127, 119, 127, 133, 127, 89, 127, 155, 127, 109, 127, 206, 126, 106, 127, 47, 127
48, 32, 42, 0, 146, 255, 27, 0, 57, 6, 190, 191, 217, 3, 157, 0, 113, 252, 0, 0, 0, 0, 0, 0, 0, 0, 0, 0, 0, 0
97, 16, 253, 126, 166, 127, 134, 127, 231, 124, 221, 126, 25, 127, 146, 127, 136, 127, 23, 127, 131, 127, 51, 127, 115, 126, 122, 127, 249, 126
98, 16, 24, 127, 219, 127, 201, 127, 164, 125, 198, 127, 134, 127, 193, 127, 131, 127, 240, 126, 67, 127, 27, 127, 196, 126, 96, 127, 42, 127
49, 32, 65, 0, 80, 255, 6, 0, 49, 6, 71, 192, 173, 2, 142, 0, 117, 252, 0, 0, 0, 0, 0, 0, 0, 0, 0, 0, 0, 0
99, 16, 47, 127, 115, 127, 179, 127, 10, 125, 60, 127, 70, 127, 137, 127, 125, 127, 204, 126, 17, 127, 4, 127, 247, 126, 210, 126, 41, 127
100, 16, 28, 127, 110, 127, 132, 127, 180, 124, 142, 126, 220, 126, 104, 127, 117, 127, 123, 126, 3, 127, 215, 126, 198, 126, 226, 126, 254, 126
50, 32, 87, 0, 78, 255, 218, 255, 68, 6, 217, 192, 169, 2, 153, 0, 120, 252, 0, 0, 0, 0, 0, 0, 0, 0, 0, 0, 0, 0
101, 16, 30, 127, 186, 127, 169, 127, 110, 125, 168, 127, 46, 127, 138, 127, 118, 127, 194, 126, 25, 127, 25, 127, 210, 126, 162, 127, 64, 127
102, 16, 26, 127, 147, 127, 165, 127, 133, 125, 175, 127, 55, 127, 153, 127, 126, 127, 16, 127, 59, 127, 74, 127, 194, 126, 102, 127, 77, 127
51, 32, 181, 0, 92, 255, 45, 255, 52, 6, 71, 193, 51, 2, 147, 0, 122, 252, 0, 0, 0, 0, 0, 0, 0, 0, 0, 0, 0, 0
103, 16, 230, 126, 89, 127, 87, 127, 248, 124, 114, 126, 164, 126, 115, 127, 120, 127, 185, 126, 25, 127, 206, 126, 99, 126, 193, 126, 231, 126
104, 16, 251, 126, 130, 127, 115, 127, 18, 125, 0, 127, 175, 126, 112, 127, 130, 127, 202, 126, 40, 127, 186, 126, 134, 126, 78, 127, 38, 127
52, 32, 229, 0, 144, 255, 203, 254, 60, 6, 122, 193, 209, 1, 133, 0, 127, 252, 0, 0, 0, 0, 0, 0, 0, 0, 0, 0, 0, 0
105, 16, 40, 127, 148, 127, 190, 127, 158, 125, 110, 127, 18, 127, 170, 127, 151, 127, 38, 127, 112, 127, 46, 127, 205, 126, 235, 127, 134, 127
106, 16, 254, 126, 88, 127, 146, 127, 107, 125, 52, 126, 226, 126, 145, 127, 136, 127, 193, 126, 49, 127, 50, 127, 126, 126, 115, 127, 38, 127
53, 32, 171, 1, 248, 255, 246, 253, 68, 6, 34, 194, 166, 1, 133, 0, 143, 252, 0, 0, 0, 0, 0, 0, 0, 0, 0, 0, 0, 0
107, 16, 241, 126, 130, 127, 125, 127, 199, 124, 72, 126, 176, 126, 101, 127, 122, 127, 68, 126, 24, 127, 8, 127, 113, 126, 76, 127, 26, 127
108, 16, 88, 127, 192, 127, 215, 127, 92, 125, 96, 127, 22, 127, 136, 127, 139, 127, 168, 126, 170, 127, 105, 127, 245, 126, 13, 128, 206, 127
54, 32, 252, 1, 51, 0, 174, 253, 11, 6, 1, 195, 212, 1, 142, 0, 125, 252, 0, 0, 0, 0, 0, 0, 0, 0, 0, 0, 0, 0
109, 16, 138, 127, 143, 127, 229, 127, 69, 126, 162, 126, 28, 127, 121, 127, 100, 127, 198, 126, 171, 127, 192, 127, 65, 127, 58, 128, 15, 128
110, 16, 42, 127, 133, 127, 161, 127, 211, 125, 196, 125, 87, 126, 55, 127, 59, 127, 13, 126, 251, 126, 79, 127, 7, 127, 165, 127, 176, 127
55, 32, 217, 2, 137, 0, 1, 253, 160, 5, 126, 197, 56, 3, 142, 0, 192, 252, 0, 0, 0, 0, 0, 0, 0, 0, 0, 0, 0, 0
111, 16, 16, 127, 130, 127, 178, 127, 145, 125, 165, 126, 49, 126, 69, 127, 107, 127, 210, 125, 254, 126, 21, 127, 232, 126, 212, 127, 138, 127
112, 16, 138, 127, 108, 127, 3, 128, 48, 126, 237, 126, 207, 126, 144, 127, 144, 127, 71, 126, 107, 127, 135, 127, 26, 127, 142, 128, 200, 127
56, 32, 113, 3, 208, 0, 201, 252, 210, 5, 54, 199, 155, 4, 128, 0, 123, 252, 0, 0, 0, 0, 0, 0, 0, 0, 0, 0, 0, 0
113, 16, 180, 127, 141, 127, 247, 127, 216, 125, 216, 125, 231, 126, 133, 127, 120, 127, 92, 126, 61, 127, 131, 127, 15, 127, 51, 128, 253, 127
114, 16, 109, 127, 159, 127, 207, 127, 43, 125, 231, 125, 159, 126, 88, 127, 119, 127, 8, 126, 18, 127, 33, 127, 12, 127, 187, 127, 1, 128
57, 32, 136, 4, 160, 1, 231, 251, 18, 6, 171, 199, 59, 5, 124, 0, 134, 252, 0, 0, 0, 0, 0, 0, 0, 0, 0, 0, 0, 0
115, 16, 137, 127, 155, 127, 20, 128, 175, 125, 198, 126, 176, 126, 111, 127, 143, 127, 40, 126, 115, 127, 102, 127, 118, 127, 76, 128, 11, 128
116, 16, 179, 127, 153, 127, 39, 128, 99, 126, 62, 126, 208, 126, 111, 127, 127, 127, 67, 126, 147, 127, 198, 127, 184, 127, 109, 128, 26, 128
58, 32, 9, 5, 237, 1, 101, 251, 189, 6, 239, 198, 97, 7, 123, 0, 145, 252, 0, 0, 0, 0, 0, 0, 0, 0, 0, 0, 0, 0
117, 16, 105, 127, 161, 127, 188, 127, 47, 126, 159, 125, 174, 126, 86, 127, 121, 127, 231, 125, 13, 127, 110, 127, 120, 127, 215, 127, 0, 128
118, 16, 71, 127, 157, 127, 162, 127, 11, 126, 64, 126, 135, 126, 89, 127, 134, 127, 224, 125, 214, 126, 95, 127, 84, 127, 14, 128, 228, 127
59, 32, 226, 5, 97, 2, 28, 251, 55, 7, 203, 197, 219, 7, 112, 0, 155, 252, 0, 0, 0, 0, 0, 0, 0, 0, 0, 0, 0, 0
119, 16, 126, 127, 118, 127, 245, 127, 91, 126, 141, 126, 191, 126, 78, 127, 126, 127, 69, 126, 99, 127, 245, 127, 151, 127, 182, 128, 7, 128
120, 16, 161, 127, 133, 127, 12, 128, 82, 126, 201, 125, 9, 127, 98, 127, 111, 127, 48, 126, 180, 127, 3, 128, 167, 127, 127, 128, 28, 128
60, 32, 40, 6, 125, 2, 62, 251, 28, 8, 53, 196, 103, 9, 103, 0, 91, 252, 0, 0, 0, 0, 0, 0, 0, 0, 0, 0, 0, 0
121, 16, 108, 127, 151, 127, 204, 127, 49, 126, 118, 125, 223, 126, 151, 127, 109, 127, 185, 125, 67, 127, 131, 127, 119, 127, 31, 128, 222, 127
122, 16, 96, 127, 128, 127, 219, 127, 86, 126, 22, 126, 191, 126, 143, 127, 139, 127, 230, 125, 252, 126, 152, 127, 161, 127, 87, 128, 250, 127
61, 32, 64, 6, 163, 2, 200, 251, 164, 8, 164, 195, 204, 10, 90, 0, 166, 252, 0, 0, 0, 0, 0, 0, 0, 0, 0, 0, 0, 0
123, 16, 203, 127, 109, 127, 77, 128, 47, 126, 87, 126, 20, 127, 117, 127, 148, 127, 81, 126, 117, 127, 47, 128, 18, 128, 171, 128, 103, 128
124, 16, 203, 127, 117, 127, 66, 128, 82, 126, 174, 125, 252, 126, 126, 127, 118, 127, 233, 125, 161, 127, 25, 128, 248, 127, 149, 128, 52, 128
62, 32, 62, 6, 146, 2, 15, 252, 110, 9, 217, 195, 151, 11, 93, 0, 177, 252, 0, 0, 0, 0, 0, 0, 0, 0, 0, 0, 0, 0
125, 16, 133, 127, 206, 127, 42, 128, 96, 127, 166, 125, 181, 126, 146, 127, 117, 127, 179, 125, 105, 127, 254, 127, 215, 127, 123, 128, 252, 127
126, 16, 145, 127, 204, 127, 116, 128, 129, 127, 33, 126, 244, 126, 108, 127, 132, 127, 50, 126, 117, 127, 81, 128, 51, 128, 122, 128, 84, 128
63, 32, 244, 5, 109, 2, 7, 252, 152, 9, 250, 195, 197, 12, 78, 0, 180, 252, 0, 0, 0, 0, 0, 0, 0, 0, 0, 0, 0, 0
127, 16, 185, 127, 127, 127, 165, 128, 145, 126, 204, 125, 219, 126, 78, 127, 123, 127, 251, 125, 80, 127, 44, 128, 107, 128, 84, 128, 131, 128
0, 16, 230, 127, 160, 127, 206, 128, 241, 126, 221, 125, 127, 126, 127, 127, 113, 127, 99, 125, 34, 127, 26, 128, 157, 128, 143, 128, 104, 128
0, 32, 196, 5, 104, 2, 235, 251, 176, 9, 66, 196, 179, 13, 73, 0, 188, 252, 0, 0, 0, 0, 0, 0, 0, 0, 0, 0, 0, 0
1, 16, 12, 128, 208, 127, 222, 128, 2, 128, 64, 126, 172, 126, 98, 127, 115, 127, 176, 125, 137, 127, 143, 128, 244, 128, 249, 128, 121, 128
2, 16, 17, 128, 212, 127, 186, 128, 0, 128, 185, 125, 233, 126, 51, 127, 121, 127, 20, 126, 178, 127, 169, 128, 62, 129, 247, 128, 187, 128
1, 32, 124, 5, 67, 2, 182, 251, 212, 8, 53, 196, 184, 14, 72, 0, 176, 252, 0, 0, 0, 0, 0, 0, 0, 0, 0, 0, 0, 0
3, 16, 22, 128, 185, 127, 174, 128, 222, 127, 160, 125, 249, 126, 94, 127, 128, 127, 215, 125, 108, 127, 122, 128, 94, 129, 231, 128, 231, 128
4, 16, 78, 128, 167, 127, 158, 128, 232, 127, 100, 126, 8, 127, 138, 127, 125, 127, 165, 125, 137, 127, 120, 128, 3, 129, 239, 128, 158, 128
2, 32, 80, 5, 67, 2, 208, 251, 198, 8, 243, 195, 235, 14, 69, 0, 221, 252, 0, 0, 0, 0, 0, 0, 0, 0, 0, 0, 0, 0
5, 16, 24, 128, 190, 127, 44, 128, 255, 127, 63, 126, 10, 127, 129, 127, 127, 127, 168, 125, 131, 127, 75, 128, 115, 128, 176, 128, 21, 128
6, 16, 143, 127, 183, 127, 210, 127, 19, 128, 192, 125, 3, 127, 83, 127, 128, 127, 165, 125, 10, 127, 242, 127, 63, 128, 75, 128, 241, 127
3, 32, 208, 4, 74, 2, 13, 252, 232, 9, 126, 195, 136, 15, 58, 0, 196, 252, 0, 0, 0, 0, 0, 0, 0, 0, 0, 0, 0, 0
7, 16, 158, 127, 178, 127, 250, 127, 138, 127, 18, 126, 9, 127, 108, 127, 110, 127, 133, 125, 13, 127, 198, 127, 66, 128, 59, 128, 40, 128
8, 16, 244, 127, 189, 127, 246, 127, 115, 127, 110, 126, 30, 127, 159, 127, 110, 127, 111, 125, 98, 127, 167, 127, 34, 128, 75, 128, 65, 128
4, 32, 103, 4, 33, 2, 19, 252, 44, 10, 219, 195, 28, 16, 39, 0, 223, 252, 0, 0, 0, 0, 0, 0, 0, 0, 0, 0, 0, 0
9, 16, 2, 128, 191, 127, 202, 127, 237, 127, 72, 126, 18, 127, 126, 127, 141, 127, 168, 125, 104, 127, 134, 127, 35, 128, 67, 128, 51, 128
10, 16, 177, 127, 193, 127, 163, 127, 157, 127, 1, 126, 1, 127, 121, 127, 134, 127, 170, 125, 246, 126, 62, 127, 252, 127, 16, 128, 2, 128
5, 32, 174, 3, 220, 1, 33, 252, 243, 9, 68, 196, 174, 16, 45, 0, 210, 252, 0, 0, 0, 0, 0, 0, 0, 0, 0, 0, 0, 0
11, 16, 87, 127, 171, 127, 100, 127, 230, 126, 37, 126, 45, 127, 149, 127, 100, 127, 107, 125, 176, 126, 236, 126, 153, 127, 220, 127, 227, 127
12, 16, 121, 127, 156, 127, 132, 127, 231, 126, 42, 126, 54, 127, 135, 127, 106, 127, 129, 125, 29, 127, 224, 126, 139, 127, 15, 128, 246, 127
6, 32, 89, 3, 234, 1, 72, 252, 67, 10, 151, 196, 124, 17, 30, 0, 219, 252, 0, 0, 0, 0, 0, 0, 0, 0, 0, 0, 0, 0
13, 16, 221, 127, 158, 127, 228, 127, 103, 127, 24, 126, 24, 127, 121, 127, 120, 127, 203, 125, 128, 127, 6, 127, 218, 127, 133, 128, 10, 128
14, 16, 252, 127, 171, 127, 209, 127, 183, 127, 188, 126, 90, 127, 153, 127, 114, 127, 214, 125, 81, 127, 36, 127, 254, 127, 192, 128, 28, 128
7, 32, 128, 2, 4, 2, 77, 252, 167, 10, 104, 196, 153, 17, 30, 0, 226, 252, 0, 0, 0, 0, 0, 0, 0, 0, 0, 0, 0, 0
15, 16, 232, 127, 202, 127, 170, 127, 192, 127, 43, 127, 126, 127, 171, 127, 122, 127, 175, 125, 24, 127, 253, 126, 190, 127, 155, 128, 66, 128
16, 16, 3, 128, 155, 127, 191, 127, 69, 127, 108, 126, 78, 127, 143, 127, 129, 127, 166, 125, 59, 127, 170, 126, 143, 127, 112, 128, 91, 128
8, 32, 41, 2, 239, 1, 85, 252, 66, 12, 97, 195, 174, 17, 31, 0, 237, 252, 0, 0, 0, 0, 0, 0, 0, 0, 0, 0, 0, 0
17, 16, 5, 128, 131, 127, 164, 127, 248, 126, 38, 126, 77, 127, 153, 127, 122, 127, 199, 125, 75, 127, 172, 126, 163, 127, 109, 128, 54, 128
18, 16, 243, 127, 199, 127, 146, 127, 74, 127, 68, 127, 66, 127, 158, 127, 122, 127, 225, 125, 57, 127, 0, 127, 161, 127, 132, 128, 3, 128
9, 32, 12, 1, 113, 1, 122, 252, 231, 12, 36, 195, 123, 17, 14, 0, 237, 252, 0, 0, 0, 0, 0, 0, 0, 0, 0, 0, 0, 0
19, 16, 17, 128, 195, 127, 197, 127, 194, 127, 152, 127, 74, 127, 148, 127, 136, 127, 5, 126, 105, 127, 30, 127, 165, 127, 167, 128, 44, 128
20, 16, 237, 127, 146, 127, 159, 127, 165, 127, 154, 126, 114, 127, 164, 127, 133, 127, 236, 125, 94, 127, 182, 126, 118, 127, 105, 128, 7, 128
10, 32, 142, 0, 18, 1, 126, 252, 8, 14, 221, 195, 201, 17, 13, 0, 199, 252, 0, 0, 0, 0, 0, 0, 0, 0, 0, 0, 0, 0
21, 16, 125, 127, 121, 127, 71, 127, 5, 127, 113, 126, 6, 127, 136, 127, 111, 127, 178, 125, 22, 127, 114, 126, 15, 127, 47, 128, 136, 127
22, 16, 163, 127, 114, 127, 144, 127, 202, 126, 49, 127, 93, 126, 139, 127, 112, 127, 218, 125, 52, 127, 201, 126, 68, 127, 136, 128, 186, 127
11, 32, 131, 255, 50, 0, 181, 252, 230, 13, 12, 197, 221, 17, 6, 0, 229, 252, 0, 0, 0, 0, 0, 0, 0, 0, 0, 0, 0, 0
23, 16, 236, 127, 132, 127, 205, 127, 18, 127, 4, 127, 101, 126, 185, 127, 129, 127, 252, 125, 94, 127, 236, 126, 152, 127, 178, 128, 19, 128
24, 16, 161, 127, 125, 127, 121, 127, 33, 127, 154, 126, 154, 126, 164, 127, 122, 127, 220, 125, 51, 127, 155, 126, 43, 127, 61, 128, 209, 127
12, 32, 54, 255, 233, 255, 198, 252, 83, 14, 144, 197, 234, 17, 3, 0, 235, 252, 0, 0, 0, 0, 0, 0, 0, 0, 0, 0, 0, 0
25, 16, 122, 127, 107, 127, 137, 127, 209, 126, 221, 126, 124, 126, 163, 127, 117, 127, 18, 126, 57, 127, 149, 126, 3, 127, 25, 128, 201, 127
26, 16, 167, 127, 91, 127, 218, 127, 59, 127, 60, 127, 188, 126, 198, 127, 133, 127, 172, 126, 157, 127, 247, 126, 130, 127, 117, 128, 30, 128
13, 32, 165, 254, 92, 255, 199, 252, 31, 15, 247, 197, 210, 17, 251, 255, 222, 252, 0, 0, 0, 0, 0, 0, 0, 0, 0, 0, 0, 0
27, 16, 131, 127, 76, 127, 161, 127, 163, 127, 76, 127, 245, 126, 171, 127, 127, 127, 161, 126, 133, 127, 0, 127, 117, 127, 161, 128, 249, 127
28, 16, 117, 127, 52, 127, 88, 127, 250, 126, 46, 127, 166, 126, 142, 127, 114, 127, 57, 126, 74, 127, 192, 126, 22, 127, 123, 128, 212, 127
14, 32, 111, 254, 5, 255, 204, 252, 205, 15, 43, 198, 229, 17, 0, 0, 225, 252, 0, 0, 0, 0, 0, 0, 0, 0, 0, 0, 0, 0
29, 16, 159, 127, 68, 127, 107, 127, 196, 126, 41, 127, 155, 126, 133, 127, 122, 127, 99, 126, 114, 127, 162, 126, 36, 127, 15, 128, 229, 127
30, 16, 98, 127, 113, 127, 87, 127, 17, 127, 204, 126, 220, 126, 135, 127, 120, 127, 123, 126, 70, 127, 111, 126, 250, 126, 205, 127, 151, 127
15, 32, 224, 253, 36, 254, 8, 253, 235, 16, 157, 197, 37, 17, 243, 255, 185, 252, 0, 0, 0, 0, 0, 0, 0, 0, 0, 0, 0, 0
31, 16, 2, 127, 41, 127, 61, 127, 208, 126, 243, 126, 255, 126, 146, 127, 120, 127, 112, 126, 252, 126, 66, 126, 172, 126, 34, 128, 102, 127
32, 16, 104, 127, 225, 126, 145, 127, 136, 126, 120, 127, 66, 127, 173, 127, 140, 127, 203, 126, 70, 127, 125, 126, 223, 126, 128, 128, 137, 127
16, 32, 165, 253, 144, 253, 48, 253, 225, 17, 193, 196, 35, 16, 240, 255, 210, 252, 0, 0, 0, 0, 0, 0, 0, 0, 0, 0, 0, 0
33, 16, 246, 127, 78, 127, 216, 127, 215, 126, 50, 127, 112, 127, 218, 127, 141, 127, 34, 127, 185, 127, 248, 126, 47, 127, 110, 128, 175, 127
34, 16, 158, 127, 165, 127, 167, 127, 86, 127, 47, 127, 60, 127, 214, 127, 127, 127, 35, 127, 170, 127, 32, 127, 35, 127, 93, 128, 180, 127
17, 32, 244, 252, 75, 252, 224, 253, 118, 18, 117, 196, 233, 15, 245, 255, 1, 253, 0, 0, 0, 0, 0, 0, 0, 0, 0, 0, 0, 0
35, 16, 81, 127, 87, 127, 141, 127, 114, 127, 198, 127, 50, 127, 188, 127, 135, 127, 52, 127, 129, 127, 10, 127, 45, 127, 152, 128, 205, 127
36, 16, 1, 128, 15, 127, 230, 127, 42, 127, 238, 127, 162, 127, 193, 127, 133, 127, 147, 127, 5, 128, 95, 127, 211, 127, 43, 129, 71, 128
18, 32, 167, 252, 156, 251, 82, 254, 245, 17, 1, 197, 55, 15, 245, 255, 211, 252, 0, 0, 0, 0, 0, 0, 0, 0, 0, 0, 0, 0
37, 16, 94, 128, 62, 127, 3, 128, 68, 127, 195, 127, 191, 127, 198, 127, 120, 127, 170, 127, 79, 128, 131, 127, 27, 128, 240, 128, 118, 128
38, 16, 187, 127, 125, 127, 164, 127, 180, 127, 5, 128, 139, 127, 192, 127, 129, 127, 75, 127, 171, 127, 12, 127, 107, 127, 116, 127, 208, 127
19, 32, 85, 252, 17, 251, 10, 255, 98, 17, 196, 197, 183, 14, 243, 255, 189, 252, 0, 0, 0, 0, 0, 0, 0, 0, 0, 0, 0, 0
39, 16, 100, 127, 93, 127, 129, 127, 94, 127, 6, 128, 185, 127, 191, 127, 136, 127, 34, 127, 110, 127, 221, 126, 249, 126, 233, 126, 119, 127
40, 16, 178, 127, 79, 127, 186, 127, 33, 127, 235, 127, 17, 128, 214, 127, 130, 127, 96, 127, 212, 127, 39, 127, 56, 127, 137, 127, 212, 127
20, 32, 224, 251, 53, 250, 88, 255, 34, 17, 231, 198, 117, 14, 251, 255, 186, 252, 0, 0, 0, 0, 0, 0, 0, 0, 0, 0, 0, 0
41, 16, 167, 127, 119, 127, 160, 127, 120, 127, 19, 128, 40, 128, 188, 127, 126, 127, 105, 127, 200, 127, 32, 127, 61, 127, 97, 127, 203, 127
42, 16, 111, 127, 148, 127, 102, 127, 37, 127, 163, 127, 234, 127, 151, 127, 131, 127, 27, 127, 187, 127, 225, 126, 239, 126, 250, 126, 109, 127
21, 32, 192, 251, 6, 250, 123, 255, 8, 17, 219, 198, 237, 13, 3, 0, 191, 252, 0, 0, 0, 0, 0, 0, 0, 0, 0, 0, 0, 0
43, 16, 127, 127, 140, 127, 150, 127, 217, 126, 111, 127, 186, 127, 188, 127, 133, 127, 27, 127, 245, 127, 12, 127, 252, 126, 127, 127, 126, 127
44, 16, 115, 127, 65, 127, 121, 127, 228, 126, 228, 127, 160, 127, 194, 127, 128, 127, 58, 127, 185, 127, 60, 127, 23, 127, 157, 127, 145, 127
22, 32, 132, 251, 235, 249, 161, 255, 241, 16, 203, 197, 221, 12, 7, 0, 162, 252, 0, 0, 0, 0, 0, 0, 0, 0, 0, 0, 0, 0
45, 16, 75, 127, 62, 127, 40, 127, 211, 126, 4, 128, 123, 127, 169, 127, 128, 127, 6, 127, 130, 127, 0, 127, 223, 126, 255, 126, 113, 127
46, 16, 64, 127, 131, 127, 70, 127, 10, 127, 248, 127, 127, 127, 172, 127, 130, 127, 234, 126, 207, 127, 182, 126, 173, 126, 233, 126, 109, 127
23, 32, 70, 251, 226, 249, 206, 255, 46, 16, 121, 197, 39, 12, 9, 0, 178, 252, 0, 0, 0, 0, 0, 0, 0, 0, 0, 0, 0, 0
47, 16, 40, 127, 111, 127, 91, 127, 219, 126, 8, 128, 146, 127, 175, 127, 125, 127, 18, 127, 167, 127, 180, 126, 161, 126, 27, 127, 92, 127
48, 16, 26, 127, 86, 127, 67, 127, 65, 126, 239, 127, 144, 127, 169, 127, 119, 127, 60, 127, 86, 127, 197, 126, 152, 126, 10, 127, 26, 127
24, 32, 171, 250, 216, 249, 99, 0, 225, 15, 108, 197, 213, 11, 5, 0, 142, 252, 0, 0, 0, 0, 0, 0, 0, 0, 0, 0, 0, 0
49, 16, 36, 127, 128, 127, 86, 127, 12, 127, 60, 128, 138, 127, 158, 127, 125, 127, 127, 127, 216, 127, 212, 126, 151, 126, 255, 126, 12, 127
50, 16, 60, 127, 149, 127, 145, 127, 192, 127, 134, 128, 147, 127, 181, 127, 136, 127, 147, 127, 46, 128, 244, 126, 171, 126, 20, 127, 42, 127
25, 32, 100, 250, 3, 250, 180, 0, 237, 14, 3, 198, 58, 11, 18, 0, 154, 252, 0, 0, 0, 0, 0, 0, 0, 0, 0, 0, 0, 0
51, 16, 77, 127, 82, 127, 129, 127, 125, 126, 3, 128, 142, 127, 185, 127, 129, 127, 53, 127, 184, 127, 250, 126, 150, 126, 249, 126, 47, 127
52, 16, 56, 127, 54, 127, 70, 127, 246, 125, 10, 128, 138, 127, 167, 127, 117, 127, 6, 127, 109, 127, 3, 127, 128, 126, 232, 126, 80, 127
26, 32, 253, 249, 104, 250, 86, 1, 30, 14, 177, 198, 249, 10, 9, 0, 119, 252, 0, 0, 0, 0, 0, 0, 0, 0, 0, 0, 0, 0
53, 16, 10, 127, 143, 127, 80, 127, 28, 127, 218, 128, 159, 127, 183, 127, 122, 127, 2, 127, 147, 127, 247, 126, 158, 126, 22, 127, 113, 127
54, 16, 25, 127, 132, 127, 99, 127, 85, 127, 168, 128, 142, 127, 162, 127, 121, 127, 209, 126, 158, 127, 166, 126, 137, 126, 9, 127, 48, 127
27, 32, 222, 249, 207, 250, 174, 1, 197, 13, 149, 198, 183, 9, 28, 0, 126, 252, 0, 0, 0, 0, 0, 0, 0, 0, 0, 0, 0, 0
55, 16, 6, 127, 86, 127, 59, 127, 119, 126, 245, 127, 115, 127, 136, 127, 113, 127, 176, 126, 101, 127, 110, 126, 40, 126, 180, 126, 197, 126
56, 16, 149, 126, 125, 127, 247, 126, 111, 126, 127, 128, 143, 127, 141, 127, 124, 127, 216, 126, 87, 127, 133, 126, 233, 125, 91, 126, 179, 126
28, 32, 148, 249, 165, 251, 209, 1, 137, 13, 112, 198, 13, 9, 26, 0, 118, 252, 0, 0, 0, 0, 0, 0, 0, 0, 0, 0, 0, 0
57, 16, 171, 126, 128, 127, 2, 127, 219, 126, 212, 128, 169, 127, 140, 127, 131, 127, 128, 127, 210, 127, 165, 126, 81, 126, 132, 126, 25, 127
58, 16, 32, 127, 132, 127, 72, 127, 75, 126, 188, 127, 96, 127, 153, 127, 125, 127, 205, 127, 36, 128, 174, 126, 158, 126, 24, 127, 87, 127
29, 32, 121, 249, 23, 252, 234, 1, 19, 13, 49, 197, 59, 7, 40, 0, 76, 252, 0, 0, 0, 0, 0, 0, 0, 0, 0, 0, 0, 0
59, 16, 241, 126, 132, 127, 54, 127, 248, 125, 106, 127, 67, 127, 154, 127, 122, 127, 10, 127, 149, 127, 155, 126, 55, 126, 32, 127, 22, 127
60, 16, 203, 126, 126, 127, 43, 127, 189, 126, 111, 128, 175, 127, 160, 127, 129, 127, 127, 126, 2, 127, 133, 126, 41, 126, 161, 126, 28, 127
30, 32, 29, 249, 234, 252, 60, 2, 52, 13, 41, 196, 122, 5, 32, 0, 98, 252, 0, 0, 0, 0, 0, 0, 0, 0, 0, 0, 0, 0
61, 16, 28, 127, 114, 127, 107, 127, 199, 126, 202, 128, 236, 127, 189, 127, 130, 127, 236, 126, 255, 126, 144, 126, 147, 126, 153, 126, 164, 127
62, 16, 221, 126, 77, 127, 74, 127, 6, 126, 32, 128, 185, 127, 180, 127, 118, 127, 21, 127, 242, 126, 130, 126, 96, 126, 14, 127, 133, 127
31, 32, 225, 248, 48, 253, 101, 2, 16, 13, 70, 196, 239, 4, 49, 0, 74, 252, 0, 0, 0, 0, 0, 0, 0, 0, 0, 0, 0, 0
63, 16, 138, 126, 97, 127, 38, 127, 70, 126, 242, 127, 129, 127, 158, 127, 118, 127, 217, 126, 22, 127, 116, 126, 252, 125, 82, 127, 13, 127
64, 16, 213, 126, 139, 127, 85, 127, 147, 126, 24, 128, 112, 127, 146, 127, 127, 127, 2, 127, 110, 127, 114, 126, 27, 126, 71, 127, 30, 127
32, 32, 115, 248, 189, 253, 149, 2, 144, 12, 34, 196, 68, 3, 37, 0, 83, 252, 0, 0, 0, 0, 0, 0, 0, 0, 0, 0, 0, 0
65, 16, 220, 126, 157, 127, 67, 127, 255, 125, 235, 127, 98, 127, 136, 127, 120, 127, 14, 127, 49, 127, 69, 126, 29, 126, 236, 126, 62, 127
66, 16, 205, 126, 119, 127, 46, 127, 17, 126, 3, 128, 100, 127, 148, 127, 117, 127, 0, 127, 7, 127, 67, 126, 4, 126, 189, 126, 79, 127
33, 32, 88, 248, 3, 254, 116, 2, 71, 12, 219, 195, 153, 2, 47, 0, 82, 252, 0, 0, 0, 0, 0, 0, 0, 0, 0, 0, 0, 0
67, 16, 234, 126, 70, 127, 109, 127, 204, 126, 21, 128, 126, 127, 151, 127, 112, 127, 51, 127, 112, 127, 126, 126, 32, 126, 40, 127, 142, 127
68, 16, 219, 126, 116, 127, 141, 127, 162, 126, 172, 127, 140, 127, 172, 127, 111, 127, 107, 127, 153, 127, 159, 126, 102, 126, 65, 127, 165, 127
34, 32, 81, 248, 157, 254, 58, 2, 96, 11, 89, 195, 111, 0, 48, 0, 24, 252, 0, 0, 0, 0, 0, 0, 0, 0, 0, 0, 0, 0
69, 16, 218, 126, 153, 127, 106, 127, 237, 125, 103, 127, 143, 127, 188, 127, 123, 127, 158, 127, 130, 127, 128, 126, 111, 126, 175, 126, 134, 127
70, 16, 0, 127, 115, 127, 98, 127, 48, 126, 213, 127, 195, 127, 186, 127, 126, 127, 155, 127, 113, 127, 59, 126, 34, 126, 152, 126, 127, 127
35, 32, 109, 248, 253, 254, 72, 2, 157, 11, 25, 195, 150, 254, 49, 0, 56, 252, 0, 0, 0, 0, 0, 0, 0, 0, 0, 0, 0, 0
71, 16, 219, 126, 144, 127, 95, 127, 11, 127, 46, 128, 6, 128, 210, 127, 122, 127, 106, 127, 53, 127, 29, 126, 60, 126, 35, 127, 142, 127
72, 16, 216, 126, 160, 127, 112, 127, 221, 126, 226, 127, 232, 127, 187, 127, 125, 127, 75, 127, 235, 126, 57, 126, 145, 126, 38, 127, 127, 127
36, 32, 206, 248, 113, 255, 140, 2, 155, 12, 240, 194, 20, 254, 60, 0, 40, 252, 0, 0, 0, 0, 0, 0, 0, 0, 0, 0, 0, 0
73, 16, 54, 127, 88, 127, 157, 127, 49, 126, 147, 127, 114, 127, 142, 127, 115, 127, 218, 126, 163, 126, 234, 125, 86, 126, 98, 126, 75, 127
74, 16, 17, 127, 77, 127, 104, 127, 162, 126, 243, 127, 32, 127, 150, 127, 103, 127, 135, 126, 106, 126, 133, 125, 6, 126, 11, 126, 41, 127
37, 32, 0, 249, 143, 255, 122, 2, 197, 12, 193, 194, 192, 252, 54, 0, 38, 252, 0, 0, 0, 0, 0, 0, 0, 0, 0, 0, 0, 0
75, 16, 215, 126, 165, 127, 91, 127, 175, 126, 72, 128, 13, 127, 169, 127, 134, 127, 221, 126, 150, 126, 186, 125, 82, 126, 64, 126, 95, 127
76, 16, 48, 127, 202, 127, 209, 127, 42, 126, 31, 128, 3, 127, 148, 127, 146, 127, 55, 127, 238, 126, 24, 126, 214, 126, 110, 126, 212, 127
38, 32, 146, 249, 136, 255, 110, 2, 141, 12, 103, 195, 166, 251, 57, 0, 41, 252, 0, 0, 0, 0, 0, 0, 0, 0, 0, 0, 0, 0
77, 16, 151, 127, 112, 127, 228, 127, 211, 126, 40, 128, 2, 127, 140, 127, 104, 127, 54, 127, 29, 127, 91, 126, 255, 126, 189, 126, 15, 128
78, 16, 153, 127, 110, 127, 152, 127, 88, 127, 55, 128, 6, 127, 187, 127, 109, 127, 62, 127, 5, 127, 75, 126, 167, 126, 184, 126, 215, 127
39, 32, 240, 249, 115, 255, 128, 2, 37, 12, 192, 196, 144, 251, 65, 0, 26, 252, 0, 0, 0, 0, 0, 0, 0, 0, 0, 0, 0, 0
79, 16, 42, 127, 170, 127, 108, 127, 167, 126, 52, 128, 232, 126, 145, 127, 131, 127, 82, 127, 194, 126, 184, 125, 31, 126, 40, 126, 102, 127
80, 16, 190, 126, 134, 127, 63, 127, 87, 126, 84, 128, 200, 126, 57, 127, 79, 127, 235, 126, 172, 126, 102, 125, 245, 125, 240, 125, 22, 127
40, 32, 1, 251, 99, 255, 106, 2, 145, 12, 56, 197, 210, 250, 68, 0, 22, 252, 0, 0, 0, 0, 0, 0, 0, 0, 0, 0, 0, 0
81, 16, 229, 126, 110, 127, 84, 127, 189, 126, 133, 128, 226, 126, 66, 127, 51, 127, 167, 126, 185, 126, 155, 125, 15, 126, 71, 126, 15, 127
82, 16, 38, 127, 154, 127, 126, 127, 181, 126, 172, 128, 24, 127, 114, 127, 109, 127, 22, 127, 190, 126, 148, 125, 36, 126, 71, 126, 76, 127
41, 32, 149, 251, 84, 255, 14, 2, 4, 13, 27, 198, 164, 249, 68, 0, 18, 252, 0, 0, 0, 0, 0, 0, 0, 0, 0, 0, 0, 0
83, 16, 245, 126, 202, 127, 77, 127, 173, 126, 214, 128, 38, 127, 155, 127, 148, 127, 73, 127, 193, 126, 163, 125, 63, 126, 250, 125, 142, 127
84, 16, 209, 126, 139, 127, 52, 127, 0, 127, 160, 128, 246, 126, 141, 127, 124, 127, 213, 126, 218, 126, 26, 126, 67, 126, 38, 126, 123, 127
42, 32, 226, 252, 0, 255, 226, 0, 104, 12, 242, 197, 144, 249, 65, 0, 255, 251, 0, 0, 0, 0, 0, 0, 0, 0, 0, 0, 0, 0
85, 16, 13, 127, 66, 127, 142, 127, 151, 126, 239, 127, 154, 126, 71, 127, 119, 127, 43, 126, 187, 126, 250, 125, 29, 126, 45, 126, 67, 127
86, 16, 31, 127, 137, 127, 182, 127, 91, 126, 8, 128, 109, 126, 63, 127, 142, 127, 229, 125, 114, 126, 128, 125, 64, 126, 207, 125, 104, 127
43, 32, 165, 253, 208, 254, 90, 0, 191, 11, 165, 197, 108, 249, 73, 0, 13, 252, 0, 0, 0, 0, 0, 0, 0, 0, 0, 0, 0, 0
87, 16, 215, 126, 196, 127, 106, 127, 50, 127, 159, 128, 177, 126, 103, 127, 135, 127, 41, 126, 178, 126, 147, 125, 144, 126, 172, 125, 163, 127
88, 16, 239, 126, 170, 127, 92, 127, 99, 127, 224, 128, 240, 126, 111, 127, 120, 127, 146, 126, 26, 127, 171, 125, 116, 126, 203, 125, 123, 127
44, 32, 28, 255, 163, 254, 225, 255, 78, 11, 50, 197, 162, 249, 64, 0, 255, 251, 0, 0, 0, 0, 0, 0, 0, 0, 0, 0, 0, 0
89, 16, 51, 127, 138, 127, 114, 127, 95, 126, 167, 128, 212, 126, 98, 127, 119, 127, 176, 126, 220, 126, 106, 125, 43, 126, 192, 125, 53, 127
90, 16, 193, 126, 117, 127, 30, 127, 56, 126, 12, 128, 164, 126, 87, 127, 128, 127, 122, 126, 118, 126, 80, 125, 231, 125, 123, 125, 240, 126
45, 32, 220, 255, 153, 254, 200, 255, 111, 11, 164, 196, 191, 249, 63, 0, 14, 252, 0, 0, 0, 0, 0, 0, 0, 0, 0, 0, 0, 0
91, 16, 75, 126, 139, 127, 0, 127, 232, 126, 52, 128, 171, 126, 109, 127, 139, 127, 63, 126, 152, 126, 80, 125, 159, 125, 123, 125, 185, 126
92, 16, 139, 126, 150, 127, 122, 127, 163, 126, 10, 129, 192, 126, 103, 127, 139, 127, 42, 126, 159, 126, 53, 125, 203, 125, 181, 125, 225, 126
46, 32, 249, 0, 141, 254, 174, 255, 195, 11, 106, 195, 185, 249, 77, 0, 7, 252, 0, 0, 0, 0, 0, 0, 0, 0, 0, 0, 0, 0
93, 16, 189, 126, 101, 127, 139, 127, 96, 126, 208, 128, 147, 126, 51, 127, 126, 127, 15, 126, 94, 126, 80, 125, 14, 126, 161, 125, 18, 127
94, 16, 170, 126, 106, 127, 59, 127, 63, 127, 48, 128, 119, 126, 40, 127, 114, 127, 178, 125, 109, 126, 152, 125, 1, 126, 138, 125, 18, 127
47, 32, 96, 1, 119, 254, 160, 255, 126, 11, 62, 195, 0, 250, 77, 0, 4, 252, 0, 0, 0, 0, 0, 0, 0, 0, 0, 0, 0, 0
95, 16, 229, 126, 165, 127, 110, 127, 152, 127, 160, 128, 159, 126, 50, 127, 122, 127, 138, 125, 149, 126, 182, 125, 52, 126, 189, 125, 95, 127
96, 16, 37, 127, 152, 127, 168, 127, 138, 126, 121, 128, 133, 126, 45, 127, 126, 127, 191, 125, 120, 126, 135, 125, 112, 126, 188, 125, 181, 127
48, 32, 14, 2, 80, 254, 197, 255, 245, 10, 106, 195, 141, 250, 76, 0, 6, 252, 0, 0, 0, 0, 0, 0, 0, 0, 0, 0, 0, 0
97, 16, 46, 127, 88, 127, 136, 127, 76, 126, 214, 127, 25, 126, 31, 127, 119, 127, 210, 125, 116, 126, 123, 125, 91, 126, 158, 125, 170, 127
98, 16, 78, 127, 150, 127, 183, 127, 153, 127, 156, 128, 3, 126, 61, 127, 126, 127, 218, 125, 218, 126, 226, 125, 107, 126, 7, 126, 195, 127
49, 32, 95, 2, 102, 254, 204, 255, 219, 10, 199, 194, 12, 251, 67, 0, 12, 252, 0, 0, 0, 0, 0, 0, 0, 0, 0, 0, 0, 0
99, 16, 62, 127, 207, 127, 219, 127, 234, 127, 6, 129, 42, 126, 96, 127, 138, 127, 224, 125, 25, 127, 45, 126, 108, 126, 79, 126, 203, 127
100, 16, 204, 126, 130, 127, 103, 127, 197, 126, 253, 127, 247, 125, 64, 127, 125, 127, 153, 125, 195, 126, 196, 125, 251, 125, 193, 125, 51, 127
50, 32, 170, 2, 202, 254, 163, 255, 205, 10, 144, 194, 135, 251, 73, 0, 12, 252, 0, 0, 0, 0, 0, 0, 0, 0, 0, 0, 0, 0
101, 16, 163, 126, 150, 127, 83, 127, 78, 126, 209, 127, 203, 125, 70, 127, 111, 127, 114, 125, 82, 126, 106, 125, 243, 125, 112, 125, 247, 126
102, 16, 238, 126, 234, 127, 214, 127, 241, 126, 148, 128, 8, 126, 100, 127, 120, 127, 163, 125, 143, 126, 232, 125, 121, 126, 216, 125, 112, 127
51, 32, 214, 2, 10, 255, 152, 255, 13, 11, 186, 193, 55, 252, 76, 0, 12, 252, 0, 0, 0, 0, 0, 0, 0, 0, 0, 0, 0, 0
103, 16, 38, 127, 238, 127, 223, 127, 179, 127, 157, 128, 43, 126, 81, 127, 125, 127, 189, 125, 23, 127, 85, 126, 166, 126, 255, 125, 158, 127
104, 16, 18, 127, 199, 127, 158, 127, 146, 127, 142, 128, 5, 126, 58, 127, 115, 127, 155, 125, 238, 126, 5, 126, 151, 126, 204, 125, 130, 127
52, 32, 200, 2, 157, 255, 200, 255, 70, 11, 190, 193, 250, 251, 82, 0, 18, 252, 0, 0, 0, 0, 0, 0, 0, 0, 0, 0, 0, 0
105, 16, 6, 127, 188, 127, 178, 127, 212, 126, 172, 128, 9, 126, 60, 127, 115, 127, 146, 125, 174, 126, 234, 125, 188, 126, 232, 125, 216, 127
106, 16, 55, 127, 217, 127, 198, 127, 249, 126, 89, 128, 15, 126, 69, 127, 128, 127, 162, 125, 250, 126, 79, 126, 207, 126, 49, 126, 5, 128
53, 32, 230, 2, 217, 255, 204, 255, 35, 12, 20, 194, 56, 253, 82, 0, 222, 251, 0, 0, 0, 0, 0, 0, 0, 0, 0, 0, 0, 0
107, 16, 75, 127, 203, 127, 173, 127, 174, 127, 59, 128, 241, 125, 57, 127, 125, 127, 183, 125, 71, 127, 96, 126, 154, 126, 48, 126, 198, 127
108, 16, 129, 127, 179, 127, 191, 127, 251, 126, 100, 128, 3, 126, 69, 127, 133, 127, 3, 126, 59, 127, 22, 126, 156, 126, 32, 126, 212, 127
54, 32, 230, 2, 42, 0, 182, 255, 22, 12, 133, 194, 144, 254, 73, 0, 21, 252, 0, 0, 0, 0, 0, 0, 0, 0, 0, 0, 0, 0
109, 16, 161, 127, 197, 127, 190, 127, 54, 126, 101, 128, 101, 126, 90, 127, 139, 127, 16, 126, 37, 127, 30, 126, 157, 126, 24, 126, 216, 127
110, 16, 66, 127, 187, 127, 109, 127, 210, 126, 97, 128, 225, 126, 64, 127, 115, 127, 166, 125, 20, 127, 22, 126, 63, 126, 201, 125, 140, 127
55, 32, 235, 2, 70, 0, 201, 255, 72, 12, 77, 195, 76, 254, 77, 0, 21, 252, 0, 0, 0, 0, 0, 0, 0, 0, 0, 0, 0, 0
111, 16, 241, 126, 174, 127, 60, 127, 249, 126, 59, 128, 2, 127, 85, 127, 115, 127, 169, 125, 226, 126, 177, 125, 12, 126, 101, 125, 96, 127
112, 16, 248, 126, 173, 127, 73, 127, 121, 126, 41, 128, 184, 126, 121, 127, 133, 127, 27, 126, 242, 126, 158, 125, 18, 126, 125, 125, 65, 127
56, 32, 23, 3, 129, 0, 204, 255, 244, 12, 20, 196, 37, 255, 73, 0, 17, 252, 0, 0, 0, 0, 0, 0, 0, 0, 0, 0, 0, 0
113, 16, 244, 126, 180, 127, 111, 127, 142, 126, 21, 128, 59, 126, 86, 127, 123, 127, 31, 126, 54, 127, 247, 125, 15, 126, 245, 125, 61, 127
114, 16, 219, 126, 193, 127, 138, 127, 143, 126, 152, 127, 244, 125, 69, 127, 112, 127, 227, 125, 62, 127, 32, 126, 56, 126, 29, 126, 115, 127
57, 32, 70, 3, 126, 0, 215, 255, 77, 13, 234, 195, 26, 255, 84, 0, 34, 252, 0, 0, 0, 0, 0, 0, 0, 0, 0, 0, 0, 0
115, 16, 235, 126, 177, 127, 143, 127, 171, 126, 216, 127, 99, 126, 84, 127, 127, 127, 17, 126, 54, 127, 15, 126, 115, 126, 249, 125, 131, 127
116, 16, 35, 127, 203, 127, 183, 127, 24, 127, 185, 128, 15, 127, 96, 127, 134, 127, 71, 126, 104, 127, 46, 126, 145, 126, 36, 126, 129, 127
58, 32, 131, 3, 110, 0, 235, 255, 202, 13, 192, 195, 191, 255, 88, 0, 30, 252, 0, 0, 0, 0, 0, 0, 0, 0, 0, 0, 0, 0
117, 16, 34, 127, 213, 127, 166, 127, 131, 126, 71, 128, 23, 127, 79, 127, 115, 127, 28, 126, 155, 127, 84, 126, 161, 126, 36, 126, 161, 127
118, 16, 209, 126, 174, 127, 101, 127, 229, 125, 167, 127, 135, 126, 57, 127, 114, 127, 241, 125, 133, 127, 42, 126, 115, 126, 187, 125, 134, 127
59, 32, 151, 3, 68, 0, 248, 255, 245, 13, 125, 195, 47, 0, 73, 0, 53, 252, 0, 0, 0, 0, 0, 0, 0, 0, 0, 0, 0, 0
119, 16, 180, 126, 185, 127, 119, 127, 201, 126, 54, 128, 4, 126, 65, 127, 134, 127, 244, 125, 117, 127, 254, 125, 53, 126, 194, 125, 89, 127
120, 16, 4, 127, 185, 127, 182, 127, 90, 127, 93, 128, 19, 126, 89, 127, 118, 127, 15, 126, 135, 127, 29, 126, 122, 126, 37, 126, 132, 127
60, 32, 158, 3, 224, 255, 79, 0, 236, 13, 243, 195, 231, 0, 83, 0, 39, 252, 0, 0, 0, 0, 0, 0, 0, 0, 0, 0, 0, 0
121, 16, 45, 127, 188, 127, 196, 127, 141, 126, 237, 127, 95, 126, 133, 127, 129, 127, 26, 126, 139, 127, 47, 126, 188, 126, 32, 126, 129, 127
122, 16, 253, 126, 201, 127, 152, 127, 41, 126, 216, 127, 70, 126, 129, 127, 147, 127, 46, 126, 164, 127, 49, 126, 91, 126, 231, 125, 62, 127
61, 32, 182, 3, 189, 255, 124, 0, 220, 13, 117, 196, 231, 1, 78, 0, 49, 252, 0, 0, 0, 0, 0, 0, 0, 0, 0, 0, 0, 0
123, 16, 15, 127, 150, 127, 124, 127, 120, 126, 1, 128, 83, 126, 97, 127, 57, 127, 115, 126, 177, 127, 124, 126, 55, 126, 13, 126, 100, 127
124, 16, 38, 127, 114, 127, 146, 127, 132, 126, 41, 128, 228, 126, 115, 127, 27, 127, 137, 126, 145, 127, 161, 126, 125, 126, 63, 126, 142, 127
62, 32, 214, 3, 142, 255, 116, 0, 26, 14, 248, 195, 246, 1, 88, 0, 59, 252, 0, 0, 0, 0, 0, 0, 0, 0, 0, 0, 0, 0
125, 16, 196, 126, 166, 127, 137, 127, 149, 126, 85, 128, 68, 127, 106, 127, 70, 127, 113, 126, 170, 127, 129, 126, 91, 126, 18, 126, 71, 127
126, 16, 100, 126, 212, 127, 80, 127, 121, 126, 83, 128, 254, 126, 64, 127, 48, 127, 111, 126, 223, 127, 129, 126, 1, 126, 245, 125, 39, 127
63, 32, 194, 3, 125, 255, 89, 0, 123, 14, 38, 195, 136, 2, 82, 0, 43, 252, 0, 0, 0, 0, 0, 0, 0, 0, 0, 0, 0, 0
127, 16, 123, 126, 163, 127, 49, 127, 254, 125, 14, 128, 164, 126, 70, 127, 51, 127, 135, 126, 222, 127, 128, 126, 14, 126, 75, 126, 99, 127
0, 16, 240, 126, 139, 127, 88, 127, 206, 125, 229, 127, 165, 126, 125, 127, 97, 127, 174, 126, 237, 127, 114, 126, 96, 126, 142, 126, 152, 127
0, 32, 103, 3, 72, 255, 180, 0, 204, 14, 156, 194, 47, 3, 85, 0, 54, 252, 0, 0, 0, 0, 0, 0, 0, 0, 0, 0, 0, 0
1, 16, 50, 127, 215, 127, 194, 127, 94, 126, 237, 127, 193, 126, 168, 127, 101, 127, 191, 126, 6, 128, 156, 126, 158, 126, 119, 126, 201, 127
2, 16, 32, 127, 204, 127, 246, 127, 248, 126, 63, 128, 234, 126, 156, 127, 65, 127, 220, 126, 51, 128, 255, 126, 216, 126, 157, 126, 9, 128
1, 32, 67, 3, 25, 255, 225, 0, 4, 15, 148, 194, 205, 3, 101, 0, 54, 252, 0, 0, 0, 0, 0, 0, 0, 0, 0, 0, 0, 0
3, 16, 19, 127, 167, 127, 206, 127, 109, 126, 49, 128, 231, 126, 118, 127, 81, 127, 218, 126, 115, 128, 42, 127, 221, 126, 158, 126, 240, 127
4, 16, 9, 127, 210, 127, 142, 127, 214, 125, 145, 127, 178, 126, 103, 127, 113, 127, 163, 126, 66, 128, 236, 126, 151, 126, 68, 126, 169, 127
2, 32, 21, 3, 237, 254, 107, 1, 205, 14, 199, 194, 4, 4, 88, 0, 72, 252, 0, 0, 0, 0, 0, 0, 0, 0, 0, 0, 0, 0
5, 16, 4, 127, 171, 127, 99, 127, 109, 126, 199, 127, 159, 126, 103, 127, 104, 127, 149, 126, 230, 127, 165, 126, 75, 126, 90, 126, 162, 127
6, 16, 254, 126, 137, 127, 88, 127, 195, 126, 78, 128, 152, 126, 114, 127, 100, 127, 166, 126, 7, 128, 139, 126, 26, 126, 114, 126, 128, 127
3, 32, 166, 2, 116, 254, 181, 1, 254, 14, 195, 194, 60, 4, 104, 0, 58, 252, 0, 0, 0, 0, 0, 0, 0, 0, 0, 0, 0, 0
7, 16, 172, 126, 174, 127, 23, 127, 191, 125, 131, 127, 80, 126, 57, 127, 80, 127, 78, 126, 240, 127, 65, 126, 187, 125, 221, 125, 255, 126
8, 16, 140, 126, 206, 127, 253, 126, 146, 125, 22, 127, 34, 126, 20, 127, 68, 127, 24, 126, 127, 127, 3, 126, 118, 125, 177, 125, 235, 126
4, 32, 104, 2, 60, 254, 255, 1, 32, 15, 168, 194, 111, 4, 101, 0, 50, 252, 0, 0, 0, 0, 0, 0, 0, 0, 0, 0, 0, 0
9, 16, 3, 127, 206, 127, 103, 127, 98, 126, 9, 128, 122, 126, 86, 127, 82, 127, 110, 126, 141, 127, 82, 126, 212, 125, 21, 126, 114, 127
10, 16, 51, 127, 164, 127, 148, 127, 23, 126, 227, 127, 204, 126, 94, 127, 102, 127, 109, 126, 165, 127, 143, 126, 9, 126, 20, 126, 131, 127
5, 32, 226, 1, 184, 253, 74, 2, 209, 14, 187, 194, 161, 4, 114, 0, 65, 252, 0, 0, 0, 0, 0, 0, 0, 0, 0, 0, 0, 0
11, 16, 252, 126, 166, 127, 100, 127, 239, 125, 13, 127, 241, 126, 76, 127, 92, 127, 48, 126, 140, 127, 125, 126, 245, 125, 55, 126, 100, 127
12, 16, 252, 126, 192, 127, 107, 127, 171, 126, 72, 127, 38, 127, 100, 127, 87, 127, 122, 126, 214, 127, 127, 126, 61, 126, 238, 126, 190, 127
6, 32, 148, 1, 107, 253, 182, 2, 176, 14, 165, 194, 236, 4, 117, 0, 64, 252, 0, 0, 0, 0, 0, 0, 0, 0, 0, 0, 0, 0
13, 16, 33, 127, 180, 127, 152, 127, 82, 126, 76, 127, 45, 127, 114, 127, 131, 127, 203, 126, 21, 128, 125, 126, 157, 126, 110, 127, 7, 128
14, 16, 83, 127, 158, 127, 157, 127, 89, 125, 190, 126, 248, 126, 107, 127, 116, 127, 232, 126, 252, 127, 143, 126, 181, 126, 144, 127, 58, 128
7, 32, 6, 1, 184, 252, 100, 3, 115, 14, 195, 194, 3, 5, 123, 0, 62, 252, 0, 0, 0, 0, 0, 0, 0, 0, 0, 0, 0, 0
15, 16, 126, 127, 152, 127, 132, 127, 214, 125, 157, 126, 223, 126, 99, 127, 108, 127, 64, 127, 42, 128, 187, 126, 184, 126, 165, 127, 116, 128
16, 16, 122, 127, 169, 127, 123, 127, 109, 126, 153, 126, 199, 126, 106, 127, 138, 127, 114, 127, 115, 128, 161, 126, 151, 126, 146, 127, 59, 128
8, 32, 218, 0, 106, 252, 192, 3, 87, 14, 105, 194, 24, 5, 130, 0, 90, 252, 0, 0, 0, 0, 0, 0, 0, 0, 0, 0, 0, 0
17, 16, 117, 127, 156, 127, 168, 127, 206, 125, 141, 126, 198, 126, 102, 127, 123, 127, 111, 127, 124, 128, 158, 126, 129, 126, 108, 127, 239, 127
18, 16, 119, 127, 172, 127, 211, 127, 236, 125, 170, 126, 248, 126, 125, 127, 124, 127, 153, 127, 159, 128, 240, 126, 223, 126, 134, 127, 60, 128
9, 32, 43, 0, 217, 251, 122, 4, 38, 14, 59, 194, 160, 4, 141, 0, 55, 252, 0, 0, 0, 0, 0, 0, 0, 0, 0, 0, 0, 0
19, 16, 134, 127, 214, 127, 212, 127, 234, 126, 226, 126, 23, 127, 172, 127, 135, 127, 162, 127, 196, 128, 19, 127, 34, 127, 186, 127, 136, 128
20, 16, 202, 127, 180, 127, 206, 127, 29, 127, 101, 127, 50, 127, 172, 127, 127, 127, 139, 127, 141, 128, 7, 127, 20, 127, 180, 127, 134, 128
10, 32, 231, 255, 136, 251, 213, 4, 18, 14, 214, 193, 143, 4, 162, 0, 50, 252, 0, 0, 0, 0, 0, 0, 0, 0, 0, 0, 0, 0
21, 16, 212, 127, 172, 127, 184, 127, 111, 126, 5, 127, 111, 127, 146, 127, 124, 127, 161, 127, 91, 128, 25, 127, 251, 126, 141, 127, 118, 128
22, 16, 101, 127, 194, 127, 123, 127, 92, 126, 245, 125, 116, 127, 119, 127, 127, 127, 190, 127, 128, 128, 22, 127, 190, 126, 106, 127, 65, 128
11, 32, 110, 255, 180, 250, 193, 5, 191, 12, 155, 193, 190, 3, 167, 0, 62, 252, 0, 0, 0, 0, 0, 0, 0, 0, 0, 0, 0, 0
23, 16, 75, 127, 151, 127, 110, 127, 143, 126, 75, 126, 73, 127, 106, 127, 124, 127, 178, 127, 140, 128, 249, 126, 177, 126, 115, 127, 45, 128
24, 16, 149, 127, 144, 127, 160, 127, 52, 126, 25, 127, 83, 127, 124, 127, 120, 127, 207, 127, 104, 128, 23, 127, 252, 126, 204, 127, 91, 128
12, 32, 52, 255, 82, 250, 56, 6, 25, 12, 10, 193, 6, 3, 194, 0, 41, 252, 0, 0, 0, 0, 0, 0, 0, 0, 0, 0, 0, 0
25, 16, 97, 127, 186, 127, 157, 127, 78, 126, 121, 126, 103, 127, 102, 127, 127, 127, 10, 128, 114, 128, 102, 127, 255, 126, 55, 128, 89, 128
26, 16, 74, 127, 180, 127, 189, 127, 144, 126, 164, 125, 103, 127, 91, 127, 126, 127, 241, 127, 195, 128, 215, 127, 2, 127, 170, 128, 102, 128
13, 32, 129, 254, 209, 249, 213, 6, 175, 9, 143, 193, 207, 1, 197, 0, 47, 252, 0, 0, 0, 0, 0, 0, 0, 0, 0, 0, 0, 0
27, 16, 230, 127, 157, 127, 7, 128, 102, 126, 52, 126, 144, 127, 152, 127, 130, 127, 241, 127, 32, 129, 54, 128, 127, 127, 18, 129, 198, 128
28, 16, 7, 128, 198, 127, 241, 127, 84, 126, 172, 126, 139, 127, 160, 127, 143, 127, 96, 128, 253, 128, 35, 128, 133, 127, 234, 128, 177, 128
14, 32, 67, 254, 197, 249, 217, 6, 167, 8, 70, 194, 66, 1, 207, 0, 46, 252, 0, 0, 0, 0, 0, 0, 0, 0, 0, 0, 0, 0
29, 16, 153, 127, 225, 127, 201, 127, 156, 126, 56, 126, 89, 127, 108, 127, 130, 127, 99, 128, 131, 128, 225, 127, 47, 127, 155, 128, 106, 128
30, 16, 193, 127, 168, 127, 229, 127, 0, 127, 44, 126, 98, 127, 79, 127, 92, 127, 184, 127, 112, 128, 243, 127, 125, 127, 231, 128, 181, 128
15, 32, 23, 254, 37, 250, 1, 6, 70, 6, 220, 195, 61, 0, 225, 0, 64, 252, 0, 0, 0, 0, 0, 0, 0, 0, 0, 0, 0, 0
31, 16, 65, 128, 149, 127, 252, 127, 235, 126, 52, 126, 74, 127, 77, 127, 109, 127, 66, 127, 120, 128, 20, 128, 173, 127, 15, 129, 199, 128
32, 16, 239, 127, 193, 127, 202, 127, 153, 126, 239, 125, 18, 127, 53, 127, 149, 127, 128, 127, 24, 128, 213, 127, 62, 127, 135, 128, 74, 128
16, 32, 56, 254, 168, 250, 35, 5, 167, 3, 234, 196, 101, 255, 220, 0, 45, 252, 0, 0, 0, 0, 0, 0, 0, 0, 0, 0, 0, 0
33, 16, 113, 127, 227, 127, 154, 127, 184, 126, 102, 126, 60, 127, 53, 127, 132, 127, 188, 127, 11, 128, 166, 127, 26, 127, 69, 128, 20, 128
34, 16, 198, 127, 231, 127, 219, 127, 144, 127, 35, 127, 196, 127, 146, 127, 184, 127, 0, 128, 175, 128, 252, 127, 130, 127, 194, 128, 117, 128
17, 32, 209, 254, 91, 252, 234, 2, 250, 3, 144, 197, 57, 255, 233, 0, 48, 252, 0, 0, 0, 0, 0, 0, 0, 0, 0, 0, 0, 0
35, 16, 59, 128, 173, 127, 254, 127, 199, 127, 244, 126, 30, 128, 204, 127, 238, 127, 175, 128, 44, 129, 104, 128, 212, 127, 46, 129, 207, 128
36, 16, 10, 128, 160, 127, 171, 127, 214, 126, 126, 126, 255, 127, 190, 127, 179, 127, 220, 128, 7, 129, 108, 128, 224, 127, 245, 128, 239, 128
18, 32, 85, 255, 24, 253, 255, 1, 184, 6, 157, 196, 201, 254, 228, 0, 24, 252, 0, 0, 0, 0, 0, 0, 0, 0, 0, 0, 0, 0
37, 16, 214, 127, 206, 127, 143, 127, 137, 126, 147, 126, 219, 127, 172, 127, 151, 127, 111, 128, 214, 128, 165, 128, 255, 127, 244, 128, 49, 129
38, 16, 76, 128, 214, 127, 230, 127, 92, 127, 207, 126, 5, 128, 174, 127, 184, 127, 136, 128, 37, 129, 118, 129, 100, 128, 194, 129, 154, 129
19, 32, 103, 0, 68, 253, 238, 0, 165, 6, 124, 195, 209, 254, 242, 0, 38, 252, 0, 0, 0, 0, 0, 0, 0, 0, 0, 0, 0, 0
39, 16, 129, 128, 200, 127, 4, 128, 159, 127, 140, 126, 22, 128, 177, 127, 159, 127, 246, 128, 129, 129, 179, 129, 154, 128, 10, 130, 169, 129
40, 16, 27, 128, 173, 127, 207, 127, 211, 126, 23, 126, 246, 127, 157, 127, 127, 127, 245, 128, 137, 129, 39, 129, 113, 128, 138, 129, 78, 129
20, 32, 188, 0, 32, 253, 191, 0, 231, 5, 26, 193, 170, 253, 246, 0, 48, 252, 0, 0, 0, 0, 0, 0, 0, 0, 0, 0, 0, 0
41, 16, 10, 128, 188, 127, 203, 127, 222, 126, 114, 126, 1, 128, 168, 127, 148, 127, 224, 128, 84, 129, 8, 129, 86, 128, 91, 129, 48, 129
42, 16, 21, 128, 207, 127, 178, 127, 126, 127, 224, 126, 231, 127, 152, 127, 144, 127, 204, 128, 34, 129, 12, 129, 62, 128, 39, 129, 3, 129
21, 32, 212, 0, 226, 252, 218, 0, 157, 5, 130, 192, 205, 253, 250, 0, 46, 252, 0, 0, 0, 0, 0, 0, 0, 0, 0, 0, 0, 0
43, 16, 170, 127, 166, 127, 124, 127, 34, 127, 92, 126, 159, 127, 80, 127, 112, 127, 127, 128, 240, 128, 155, 128, 234, 127, 191, 128, 139, 128
44, 16, 111, 127, 201, 127, 137, 127, 173, 126, 40, 126, 153, 127, 90, 127, 87, 127, 81, 128, 164, 128, 118, 128, 173, 127, 178, 128, 118, 128
22, 32, 204, 0, 6, 253, 225, 0, 114, 4, 232, 191, 208, 253, 254, 0, 38, 252, 0, 0, 0, 0, 0, 0, 0, 0, 0, 0, 0, 0
45, 16, 112, 127, 215, 127, 139, 127, 205, 126, 203, 126, 159, 127, 111, 127, 30, 127, 35, 128, 92, 128, 94, 128, 134, 127, 126, 128, 112, 128
46, 16, 65, 127, 124, 127, 108, 127, 192, 126, 194, 126, 112, 127, 77, 127, 11, 127, 251, 127, 77, 128, 1, 128, 111, 127, 50, 128, 43, 128
23, 32, 162, 0, 138, 253, 235, 0, 204, 3, 179, 192, 247, 253, 3, 1, 30, 252, 0, 0, 0, 0, 0, 0, 0, 0, 0, 0, 0, 0
47, 16, 73, 127, 123, 127, 89, 127, 129, 126, 245, 125, 80, 127, 73, 127, 63, 127, 248, 127, 119, 128, 7, 128, 114, 127, 139, 128, 37, 128
48, 16, 147, 127, 192, 127, 104, 127, 192, 126, 20, 126, 110, 127, 103, 127, 105, 127, 71, 128, 196, 128, 138, 128, 129, 127, 3, 129, 133, 128
24, 32, 153, 0, 26, 254, 231, 0, 201, 3, 52, 193, 242, 253, 253, 0, 53, 252, 0, 0, 0, 0, 0, 0, 0, 0, 0, 0, 0, 0
49, 16, 180, 127, 198, 127, 197, 127, 31, 127, 201, 126, 142, 127, 129, 127, 120, 127, 201, 128, 82, 129, 221, 128, 207, 127, 40, 129, 209, 128
27, 32, 163, 0, 182, 0, 143, 255, 174, 4, 243, 192, 40, 254, 253, 0, 90, 252, 0, 0, 0, 0, 0, 0, 0, 0, 0, 0, 0, 0
55, 16, 121, 127, 180, 127, 130, 127, 175, 126, 43, 126, 72, 127, 115, 127, 103, 127, 85, 128, 238, 128, 71, 128, 162, 127, 163, 128, 79, 128
56, 16, 33, 127, 200, 127, 64, 127, 19, 126, 22, 126, 82, 127, 105, 127, 129, 127, 92, 128, 141, 128, 234, 127, 60, 127, 97, 128, 240, 127
28, 32, 136, 0, 71, 1, 109, 255, 6, 5, 69, 193, 111, 254, 251, 0, 40, 252, 0, 0, 0, 0, 0, 0, 0, 0, 0, 0, 0, 0
57, 16, 81, 127, 190, 127, 69, 127, 42, 126, 40, 126, 56, 127, 103, 127, 127, 127, 66, 128, 127, 128, 14, 128, 32, 127, 57, 128, 201, 127
58, 16, 167, 127, 184, 127, 129, 127, 61, 127, 193, 126, 77, 127, 98, 127, 105, 127, 172, 128, 223, 128, 154, 128, 171, 127, 152, 128, 37, 128
29, 32, 124, 0, 15, 2, 77, 255, 111, 6, 199, 193, 245, 254, 247, 0, 49, 252, 0, 0, 0, 0, 0, 0, 0, 0, 0, 0, 0, 0
59, 16, 167, 127, 211, 127, 173, 127, 106, 127, 222, 126, 113, 127, 100, 127, 120, 127, 250, 128, 28, 129, 180, 128, 248, 127, 30, 129, 80, 128
60, 16, 167, 127, 179, 127, 163, 127, 182, 126, 84, 126, 81, 127, 92, 127, 107, 127, 103, 128, 219, 128, 126, 128, 177, 127, 238, 128, 30, 128
30, 32, 137, 0, 94, 2, 47, 255, 165, 7, 45, 194, 21, 255, 4, 1, 47, 252, 0, 0, 0, 0, 0, 0, 0, 0, 0, 0, 0, 0
61, 16, 163, 127, 143, 127, 152, 127, 0, 127, 89, 126, 48, 127, 74, 127, 103, 127, 201, 127, 175, 128, 106, 128, 136, 127, 114, 128, 252, 127
62, 16, 126, 127, 187, 127, 169, 127, 191, 127, 239, 126, 67, 127, 91, 127, 122, 127, 28, 128, 234, 128, 94, 128, 177, 127, 125, 128, 9, 128
31, 32, 138, 0, 161, 2, 27, 255, 0, 8, 17, 194, 53, 255, 244, 0, 50, 252, 0, 0, 0, 0, 0, 0, 0, 0, 0, 0, 0, 0
63, 16, 119, 127, 187, 127, 132, 127, 29, 127, 181, 126, 65, 127, 104, 127, 126, 127, 148, 128, 9, 129, 77, 128, 168, 127, 153, 128, 16, 128
64, 16, 103, 127, 155, 127, 79, 127, 92, 126, 67, 126, 48, 127, 86, 127, 119, 127, 97, 128, 193, 128, 73, 128, 106, 127, 123, 128, 248, 127
32, 32, 142, 0, 187, 2, 38, 255, 152, 8, 244, 193, 64, 255, 242, 0, 44, 252, 0, 0, 0, 0, 0, 0, 0, 0, 0, 0, 0, 0
65, 16, 137, 127, 139, 127, 157, 127, 221, 126, 216, 126, 116, 127, 103, 127, 136, 127, 136, 128, 4, 129, 196, 128, 213, 127, 192, 128, 68, 128
66, 16, 250, 127, 166, 127, 24, 128, 107, 127, 235, 126, 151, 127, 125, 127, 148, 127, 253, 128, 134, 129, 80, 129, 152, 128, 28, 129, 174, 128
33, 32, 146, 0, 176, 2, 72, 255, 193, 8, 83, 194, 127, 255, 233, 0, 45, 252, 0, 0, 0, 0, 0, 0, 0, 0, 0, 0, 0, 0
67, 16, 26, 128, 204, 127, 40, 128, 43, 127, 67, 126, 110, 127, 110, 127, 142, 127, 224, 128, 43, 129, 54, 129, 157, 128, 19, 129, 149, 128
68, 16, 226, 127, 195, 127, 228, 127, 99, 127, 161, 126, 118, 127, 112, 127, 126, 127, 226, 128, 14, 129, 239, 128, 71, 128, 252, 128, 106, 128
34, 32, 153, 0, 184, 2, 91, 255, 36, 9, 238, 193, 141, 255, 236, 0, 222, 251, 0, 0, 0, 0, 0, 0, 0, 0, 0, 0, 0, 0
69, 16, 197, 127, 195, 127, 194, 127, 203, 127, 59, 127, 150, 127, 140, 127, 126, 127, 31, 129, 152, 129, 240, 128, 91, 128, 1, 129, 142, 128
70, 16, 141, 127, 190, 127, 178, 127, 162, 126, 17, 127, 113, 127, 107, 127, 173, 127, 197, 128, 109, 129, 192, 128, 48, 128, 233, 128, 108, 128
35, 32, 145, 0, 173, 2, 150, 255, 98, 9, 84, 194, 162, 255, 232, 0, 54, 252, 0, 0, 0, 0, 0, 0, 0, 0, 0, 0, 0, 0
71, 16, 92, 127, 138, 127, 138, 127, 44, 125, 223, 126, 54, 127, 64, 127, 197, 127, 98, 128, 214, 128, 108, 128, 165, 127, 218, 128, 252, 127
72, 16, 136, 127, 162, 127, 132, 127, 127, 125, 197, 126, 78, 127, 112, 127, 210, 127, 150, 128, 234, 128, 131, 128, 162, 127, 236, 128, 229, 127
36, 32, 163, 0, 128, 2, 178, 255, 210, 9, 154, 194, 132, 255, 235, 0, 32, 252, 0, 0, 0, 0, 0, 0, 0, 0, 0, 0, 0, 0
73, 16, 110, 127, 185, 127, 127, 127, 48, 126, 214, 126, 141, 127, 116, 127, 213, 127, 168, 128, 26, 129, 163, 128, 178, 127, 209, 128, 232, 127
74, 16, 60, 127, 133, 127, 96, 127, 146, 125, 85, 127, 145, 127, 80, 127, 175, 127, 103, 128, 240, 128, 111, 128, 109, 127, 138, 128, 206, 127
37, 32, 207, 0, 26, 2, 242, 255, 131, 9, 191, 194, 42, 0, 223, 0, 42, 252, 0, 0, 0, 0, 0, 0, 0, 0, 0, 0, 0, 0
75, 16, 100, 127, 108, 127, 62, 127, 104, 125, 80, 127, 132, 127, 102, 127, 143, 127, 100, 128, 225, 128, 99, 128, 124, 127, 124, 128, 220, 127
76, 16, 123, 127, 141, 127, 108, 127, 45, 126, 134, 126, 113, 127, 96, 127, 141, 127, 128, 128, 251, 128, 178, 128, 235, 127, 183, 128, 251, 127
38, 32, 220, 0, 247, 1, 242, 255, 165, 9, 123, 194, 185, 255, 225, 0, 41, 252, 0, 0, 0, 0, 0, 0, 0, 0, 0, 0, 0, 0
77, 16, 156, 127, 191, 127, 241, 127, 52, 126, 140, 126, 92, 127, 100, 127, 164, 127, 113, 128, 55, 129, 246, 128, 71, 128, 32, 129, 38, 128
78, 16, 237, 127, 174, 127, 27, 128, 37, 126, 163, 127, 143, 127, 135, 127, 180, 127, 175, 128, 130, 129, 26, 129, 141, 128, 131, 129, 121, 128
39, 32, 6, 1, 179, 1, 70, 0, 181, 9, 244, 193, 70, 0, 214, 0, 45, 252, 0, 0, 0, 0, 0, 0, 0, 0, 0, 0, 0, 0
79, 16, 14, 128, 159, 127, 238, 127, 132, 126, 161, 127, 168, 127, 138, 127, 173, 127, 7, 129, 136, 129, 43, 129, 171, 128, 138, 129, 169, 128
80, 16, 251, 127, 197, 127, 239, 127, 200, 126, 179, 126, 156, 127, 106, 127, 130, 127, 178, 128, 54, 129, 38, 129, 144, 128, 104, 129, 166, 128
40, 32, 43, 1, 128, 1, 130, 0, 137, 9, 175, 193, 2, 0, 233, 0, 36, 252, 0, 0, 0, 0, 0, 0, 0, 0, 0, 0, 0, 0
81, 16, 238, 127, 173, 127, 253, 127, 229, 126, 255, 126, 190, 127, 77, 127, 134, 127, 98, 128, 14, 129, 55, 129, 132, 128, 138, 129, 130, 128
82, 16, 188, 127, 155, 127, 185, 127, 152, 126, 147, 127, 189, 127, 100, 127, 162, 127, 185, 128, 51, 129, 70, 129, 75, 128, 101, 129, 56, 128
41, 32, 81, 1, 15, 1, 17, 1, 234, 8, 137, 193, 161, 0, 231, 0, 48, 252, 0, 0, 0, 0, 0, 0, 0, 0, 0, 0, 0, 0
83, 16, 118, 127, 172, 127, 110, 127, 83, 126, 78, 127, 150, 127, 101, 127, 145, 127, 219, 128, 105, 129, 224, 128, 192, 127, 138, 128, 239, 127
84, 16, 121, 127, 162, 127, 124, 127, 103, 126, 30, 127, 133, 127, 78, 127, 145, 127, 133, 128, 77, 129, 91, 128, 104, 127, 238, 127, 176, 127
42, 32, 92, 1, 229, 0, 80, 1, 100, 8, 118, 193, 122, 0, 225, 0, 42, 252, 0, 0, 0, 0, 0, 0, 0, 0, 0, 0, 0, 0
85, 16, 123, 127, 121, 127, 135, 127, 79, 126, 101, 127, 129, 127, 82, 127, 147, 127, 108, 128, 251, 128, 122, 128, 123, 127, 15, 128, 139, 127
86, 16, 91, 127, 95, 127, 122, 127, 51, 126, 37, 127, 130, 127, 76, 127, 130, 127, 130, 128, 252, 128, 132, 128, 139, 127, 26, 128, 157, 127
43, 32, 85, 1, 141, 0, 171, 1, 27, 8, 154, 193, 163, 0, 239, 0, 43, 252, 0, 0, 0, 0, 0, 0, 0, 0, 0, 0, 0, 0
87, 16, 56, 127, 150, 127, 132, 127, 135, 126, 127, 126, 76, 127, 73, 127, 147, 127, 62, 128, 221, 128, 7, 128, 124, 127, 186, 127, 129, 127
88, 16, 68, 127, 155, 127, 144, 127, 148, 126, 159, 126, 13, 127, 54, 127, 139, 127, 4, 128, 145, 128, 252, 127, 175, 127, 206, 127, 92, 127
44, 32, 85, 1, 110, 0, 209, 1, 195, 7, 90, 193, 137, 0, 224, 0, 37, 252, 0, 0, 0, 0, 0, 0, 0, 0, 0, 0, 0, 0
89, 16, 203, 127, 123, 127, 152, 127, 101, 126, 9, 127, 70, 127, 57, 127, 95, 127, 59, 128, 181, 128, 135, 128, 21, 128, 84, 128, 196, 127
90, 16, 1, 128, 175, 127, 159, 127, 199, 126, 186, 126, 118, 127, 92, 127, 91, 127, 112, 128, 4, 129, 187, 128, 7, 128, 142, 128, 28, 128
45, 32, 17, 1, 40, 0, 216, 1, 105, 7, 49, 193, 52, 0, 234, 0, 53, 252, 0, 0, 0, 0, 0, 0, 0, 0, 0, 0, 0, 0
91, 16, 119, 127, 171, 127, 144, 127, 20, 127, 116, 126, 65, 127, 86, 127, 102, 127, 136, 128, 252, 128, 184, 128, 169, 127, 159, 128, 252, 127
92, 16, 51, 127, 151, 127, 130, 127, 247, 126, 226, 126, 86, 127, 81, 127, 96, 127, 150, 128, 244, 128, 213, 128, 177, 127, 224, 128, 2, 128
46, 32, 10, 1, 7, 0, 196, 1, 252, 6, 144, 193, 149, 0, 229, 0, 29, 252, 0, 0, 0, 0, 0, 0, 0, 0, 0, 0, 0, 0
93, 16, 146, 127, 155, 127, 160, 127, 4, 127, 251, 126, 131, 127, 76, 127, 102, 127, 105, 128, 17, 129, 187, 128, 248, 127, 252, 128, 26, 128
94, 16, 247, 127, 130, 127, 236, 127, 53, 127, 131, 126, 89, 127, 87, 127, 124, 127, 52, 128, 244, 128, 150, 128, 40, 128, 219, 128, 28, 128
47, 32, 4, 1, 233, 255, 179, 1, 154, 6, 157, 193, 212, 0, 235, 0, 50, 252, 0, 0, 0, 0, 0, 0, 0, 0, 0, 0, 0, 0
95, 16, 252, 127, 129, 127, 32, 128, 109, 127, 96, 126, 61, 127, 104, 127, 120, 127, 44, 128, 229, 128, 221, 128, 90, 128, 0, 129, 81, 128
96, 16, 175, 127, 178, 127, 253, 127, 215, 127, 134, 126, 96, 127, 79, 127, 114, 127, 56, 128, 0, 129, 53, 129, 134, 128, 70, 129, 130, 128
48, 32, 245, 0, 243, 255, 166, 1, 1, 6, 179, 193, 186, 0, 249, 0, 136, 252, 0, 0, 0, 0, 0, 0, 0, 0, 0, 0, 0, 0
97, 16, 133, 127, 228, 127, 236, 127, 20, 128, 182, 126, 133, 127, 93, 127, 130, 127, 53, 128, 2, 129, 47, 129, 127, 128, 86, 129, 125, 128
98, 16, 200, 127, 166, 127, 13, 128, 121, 127, 145, 126, 129, 127, 90, 127, 115, 127, 8, 128, 217, 128, 24, 129, 113, 128, 80, 129, 108, 128
49, 32, 252, 0, 252, 255, 123, 1, 174, 5, 69, 193, 210, 0, 251, 0, 54, 252, 0, 0, 0, 0, 0, 0, 0, 0, 0, 0, 0, 0
99, 16, 221, 127, 120, 127, 241, 127, 213, 126, 254, 125, 52, 127, 53, 127, 110, 127, 218, 127, 173, 128, 72, 129, 98, 128, 58, 129, 45, 128
100, 16, 118, 127, 176, 127, 202, 127, 14, 127, 218, 125, 12, 127, 80, 127, 128, 127, 35, 128, 205, 128, 176, 129, 95, 128, 91, 129, 15, 128
50, 32, 217, 0, 47, 0, 78, 1, 186, 5, 48, 193, 165, 0, 252, 0, 73, 252, 0, 0, 0, 0, 0, 0, 0, 0, 0, 0, 0, 0
101, 16, 80, 127, 179, 127, 232, 127, 125, 127, 101, 126, 104, 127, 106, 127, 136, 127, 149, 128, 51, 129, 63, 130, 202, 128, 178, 129, 143, 128
102, 16, 179, 127, 149, 127, 23, 128, 18, 127, 74, 126, 164, 127, 97, 127, 139, 127, 173, 128, 138, 129, 173, 130, 102, 129, 7, 130, 5, 129
51, 32, 202, 0, 84, 0, 41, 1, 165, 5, 81, 193, 195, 0, 252, 0, 51, 252, 0, 0, 0, 0, 0, 0, 0, 0, 0, 0, 0, 0
103, 16, 249, 127, 129, 127, 247, 127, 73, 126, 110, 125, 83, 127, 86, 127, 142, 127, 202, 128, 131, 129, 218, 130, 186, 129, 56, 130, 249, 128
104, 16, 246, 127, 127, 127, 231, 127, 58, 126, 153, 125, 240, 126, 105, 127, 139, 127, 3, 129, 121, 129, 44, 131, 224, 129, 101, 130, 12, 129
52, 32, 186, 0, 124, 0, 228, 0, 10, 6, 57, 193, 209, 0, 249, 0, 54, 252, 0, 0, 0, 0, 0, 0, 0, 0, 0, 0, 0, 0
105, 16, 30, 128, 142, 127, 56, 128, 104, 126, 49, 126, 226, 126, 139, 127, 140, 127, 19, 129, 207, 129, 146, 131, 11, 130, 128, 130, 64, 129
106, 16, 7, 128, 152, 127, 7, 128, 102, 126, 181, 125, 223, 126, 102, 127, 113, 127, 223, 128, 233, 129, 76, 131, 221, 129, 74, 130, 242, 128
53, 32, 182, 0, 111, 0, 205, 0, 3, 6, 255, 192, 171, 0, 242, 0, 87, 252, 0, 0, 0, 0, 0, 0, 0, 0, 0, 0, 0, 0
107, 16, 152, 127, 202, 127, 135, 127, 144, 126, 110, 125, 160, 126, 68, 127, 131, 127, 181, 128, 136, 129, 231, 130, 103, 129, 39, 130, 167, 128
108, 16, 175, 127, 175, 127, 167, 127, 178, 126, 20, 126, 127, 126, 103, 127, 199, 127, 228, 128, 96, 129, 30, 131, 114, 129, 82, 130, 232, 128
54, 32, 143, 0, 88, 0, 146, 0, 178, 5, 16, 194, 223, 0, 246, 0, 54, 252, 0, 0, 0, 0, 0, 0, 0, 0, 0, 0, 0, 0
109, 16, 23, 128, 113, 127, 222, 127, 161, 126, 117, 126, 185, 126, 110, 127, 181, 127, 27, 129, 140, 129, 102, 131, 228, 129, 129, 130, 36, 129
110, 16, 8, 128, 165, 127, 164, 127, 92, 126, 49, 126, 231, 126, 89, 127, 171, 127, 252, 128, 148, 129, 45, 131, 229, 129, 117, 130, 2, 129
55, 32, 146, 0, 93, 0, 130, 0, 84, 5, 197, 193, 208, 0, 253, 0, 124, 252, 0, 0, 0, 0, 0, 0, 0, 0, 0, 0, 0, 0
111, 16, 212, 127, 189, 127, 109, 127, 42, 126, 44, 126, 5, 127, 111, 127, 228, 127, 23, 129, 147, 129, 220, 130, 137, 129, 88, 130, 255, 128
112, 16, 194, 127, 168, 127, 74, 127, 1, 126, 62, 126, 59, 127, 158, 127, 219, 127, 104, 129, 145, 129, 173, 130, 86, 129, 86, 130, 252, 128
56, 32, 156, 0, 176, 0, 52, 0, 108, 5, 181, 193, 80, 1, 254, 0, 62, 252, 0, 0, 0, 0, 0, 0, 0, 0, 0, 0, 0, 0
113, 16, 91, 127, 152, 127, 232, 126, 125, 125, 250, 125, 40, 127, 127, 127, 148, 127, 251, 128, 101, 129, 75, 130, 222, 128, 240, 129, 125, 128
114, 16, 46, 127, 119, 127, 188, 126, 20, 125, 161, 125, 232, 126, 72, 127, 140, 127, 126, 128, 91, 129, 191, 129, 67, 128, 109, 129, 19, 128
57, 32, 179, 0, 211, 0, 8, 0, 167, 5, 115, 193, 70, 1, 245, 0, 58, 252, 0, 0, 0, 0, 0, 0, 0, 0, 0, 0, 0, 0
115, 16, 213, 127, 145, 127, 67, 127, 148, 125, 218, 125, 12, 127, 120, 127, 174, 127, 245, 128, 102, 129, 179, 129, 120, 128, 164, 129, 89, 128
116, 16, 21, 128, 176, 127, 137, 127, 244, 125, 137, 126, 67, 127, 123, 127, 152, 127, 96, 129, 133, 129, 48, 130, 244, 128, 22, 130, 182, 128
58, 32, 166, 0, 8, 1, 235, 255, 222, 5, 233, 192, 55, 1, 242, 0, 62, 252, 0, 0, 0, 0, 0, 0, 0, 0, 0, 0, 0, 0
117, 16, 153, 127, 112, 127, 32, 127, 98, 125, 91, 126, 250, 126, 30, 127, 113, 127, 215, 128, 111, 129, 25, 130, 173, 128, 190, 129, 116, 128
118, 16, 6, 128, 136, 127, 107, 127, 220, 125, 139, 126, 82, 127, 82, 127, 138, 127, 16, 129, 153, 129, 68, 130, 6, 129, 237, 129, 207, 128
59, 32, 155, 0, 20, 1, 200, 255, 0, 6, 235, 192, 82, 1, 243, 0, 66, 252, 0, 0, 0, 0, 0, 0, 0, 0, 0, 0, 0, 0
119, 16, 71, 129, 247, 127, 109, 128, 71, 127, 252, 127, 199, 128, 2, 128, 193, 127, 169, 130, 209, 130, 181, 131, 130, 130, 133, 131, 54, 130
120, 16, 126, 129, 228, 127, 86, 128, 110, 127, 201, 128, 202, 129, 71, 128, 224, 127, 106, 131, 182, 131, 155, 132, 225, 130, 71, 132, 157, 130
60, 32, 79, 0, 55, 1, 221, 255, 116, 6, 240, 192, 78, 1, 248, 0, 61, 252, 0, 0, 0, 0, 0, 0, 0, 0, 0, 0, 0, 0
121, 16, 190, 128, 160, 127, 106, 127, 163, 126, 171, 128, 226, 129, 10, 128, 209, 127, 33, 131, 137, 131, 56, 132, 238, 129, 176, 131, 197, 129
122, 16, 133, 128, 168, 127, 96, 127, 78, 126, 82, 128, 227, 129, 235, 127, 190, 127, 52, 131, 123, 131, 39, 132, 185, 129, 104, 131, 111, 129
61, 32, 62, 0, 63, 1, 216, 255, 61, 6, 35, 193, 142, 1, 249, 0, 55, 252, 0, 0, 0, 0, 0, 0, 0, 0, 0, 0, 0, 0
123, 16, 163, 128, 182, 127, 177, 127, 123, 126, 34, 128, 255, 129, 237, 127, 161, 127, 97, 131, 182, 131, 132, 132, 43, 130, 144, 131, 208, 129
124, 16, 118, 128, 144, 127, 71, 127, 23, 126, 57, 128, 245, 129, 207, 127, 135, 127, 49, 131, 152, 131, 84, 132, 242, 129, 173, 131, 216, 129
62, 32, 228, 255, 94, 1, 0, 0, 56, 6, 89, 193, 88, 1, 242, 0, 59, 252, 0, 0, 0, 0, 0, 0, 0, 0, 0, 0, 0, 0
125, 16, 128, 128, 137, 127, 247, 126, 62, 125, 101, 128, 235, 129, 220, 127, 181, 127, 87, 131, 203, 131, 84, 132, 147, 129, 255, 131, 183, 129
126, 16, 162, 128, 156, 127, 33, 127, 69, 125, 60, 128, 242, 129, 226, 127, 215, 127, 176, 131, 45, 132, 201, 132, 195, 129, 43, 132, 233, 129
63, 32, 220, 255, 118, 1, 243, 255, 253, 5, 113, 193, 47, 1, 233, 0, 50, 252, 0, 0, 0, 0, 0, 0, 0, 0, 0, 0, 0, 0
127, 16, 105, 128, 169, 127, 40, 127, 199, 125, 239, 127, 222, 129, 205, 127, 180, 127, 115, 131, 224, 131, 205, 132, 246, 129, 232, 131, 227, 129
0, 16, 91, 128, 173, 127, 23, 127, 94, 125, 16, 128, 227, 129, 208, 127, 136, 127, 54, 131, 192, 131, 174, 132, 211, 129, 206, 131, 164, 129
0, 32, 208, 255, 143, 1, 29, 0, 46, 6, 181, 193, 108, 1, 232, 0, 65, 252, 0, 0, 0, 0, 0, 0, 0, 0, 0, 0, 0, 0
1, 16, 78, 128, 118, 127, 9, 127, 146, 124, 1, 128, 206, 129, 171, 127, 129, 127, 77, 131, 205, 131, 187, 132, 105, 129, 218, 131, 90, 129
2, 16, 213, 127, 128, 127, 203, 126, 156, 124, 196, 127, 126, 129, 146, 127, 125, 127, 56, 131, 117, 131, 125, 132, 1, 129, 215, 131, 12, 129
1, 32, 207, 255, 184, 1, 38, 0, 88, 6, 153, 193, 210, 0, 233, 0, 57, 252, 0, 0, 0, 0, 0, 0, 0, 0, 0, 0, 0, 0
