title: Osama_5.2RAW_Happy, recorded: 19.06.18 11.20.56, timestamp started:2017-11-21T16:17:43.558438-08:00            , sampling:256, subject:, labels:COUNTER INTERPOLATED F3 FC5 AF3 F7 T7 P7 O1 O2 P8 T8 F8 AF4 FC6 F4 RAW_CQ GYROX GYROY MARKER MARKER_HARDWARE SYNC TIME_STAMP_s TIME_STAMP_ms CQ_AF3 CQ_F7 CQ_F3 CQ_FC5 CQ_T7 CQ_P7 CQ_O1 CQ_O2 CQ_P8 CQ_T8 CQ_FC6 CQ_F4 CQ_F8 CQ_AF4 CQ_CMS CQ_DRL, , chan:40, samples:5000, units:emotiv
28, 16, 199, 127, 110, 127, 140, 127, 5, 128, 169, 128, 40, 127, 187, 127, 113, 127, 186, 127, 243, 127, 231, 127, 230, 127, 118, 128, 130, 128
14, 32, 80, 0, 21, 0, 46, 0, 104, 2, 173, 193, 140, 7, 250, 0, 130, 252, 0, 0, 0, 0, 0, 0, 0, 0, 0, 0, 0, 0
29, 16, 230, 127, 99, 127, 118, 127, 220, 127, 155, 128, 46, 127, 165, 127, 108, 127, 154, 127, 13, 128, 214, 127, 7, 128, 136, 128, 163, 128
30, 16, 240, 127, 101, 127, 157, 127, 146, 127, 88, 128, 1, 127, 169, 127, 131, 127, 153, 127, 247, 127, 133, 127, 15, 128, 74, 128, 204, 128
15, 32, 78, 0, 41, 0, 36, 0, 148, 2, 82, 193, 115, 7, 253, 0, 134, 252, 0, 0, 0, 0, 0, 0, 0, 0, 0, 0, 0, 0
31, 16, 198, 127, 121, 127, 126, 127, 247, 127, 144, 128, 243, 126, 185, 127, 133, 127, 184, 127, 190, 127, 187, 127, 234, 127, 80, 128, 160, 128
32, 16, 179, 127, 124, 127, 69, 127, 23, 128, 211, 128, 41, 127, 193, 127, 112, 127, 163, 127, 216, 127, 8, 128, 183, 127, 134, 128, 118, 128
16, 32, 83, 0, 41, 0, 52, 0, 169, 2, 80, 193, 241, 6, 248, 0, 188, 252, 0, 0, 0, 0, 0, 0, 0, 0, 0, 0, 0, 0
33, 16, 11, 128, 93, 127, 117, 127, 212, 127, 188, 128, 105, 127, 224, 127, 117, 127, 218, 127, 97, 128, 28, 128, 224, 127, 127, 128, 179, 128
34, 16, 20, 128, 80, 127, 113, 127, 248, 127, 144, 128, 70, 127, 241, 127, 138, 127, 60, 128, 178, 128, 9, 128, 22, 128, 44, 128, 223, 128
17, 32, 68, 0, 232, 255, 7, 0, 145, 2, 60, 194, 67, 7, 250, 0, 134, 252, 0, 0, 0, 0, 0, 0, 0, 0, 0, 0, 0, 0
35, 16, 163, 127, 114, 127, 67, 127, 3, 128, 38, 128, 253, 126, 243, 127, 132, 127, 229, 127, 64, 128, 211, 127, 235, 127, 31, 128, 200, 128
36, 16, 186, 127, 103, 127, 118, 127, 168, 127, 74, 128, 26, 127, 245, 127, 125, 127, 184, 127, 23, 128, 5, 128, 249, 127, 165, 128, 215, 128
18, 32, 102, 0, 247, 255, 253, 255, 28, 2, 74, 194, 150, 7, 253, 0, 135, 252, 0, 0, 0, 0, 0, 0, 0, 0, 0, 0, 0, 0
37, 16, 254, 127, 85, 127, 87, 127, 153, 127, 211, 128, 31, 127, 239, 127, 134, 127, 5, 128, 102, 128, 28, 128, 248, 127, 160, 128, 176, 128
38, 16, 161, 127, 110, 127, 243, 126, 228, 127, 239, 128, 228, 126, 215, 127, 132, 127, 234, 127, 67, 128, 164, 127, 111, 127, 227, 127, 54, 128
19, 32, 154, 0, 33, 0, 217, 255, 95, 2, 93, 193, 48, 7, 253, 0, 129, 252, 0, 0, 0, 0, 0, 0, 0, 0, 0, 0, 0, 0
39, 16, 130, 127, 130, 127, 30, 127, 199, 127, 225, 128, 236, 126, 194, 127, 117, 127, 167, 127, 235, 127, 99, 127, 43, 127, 152, 127, 254, 127
40, 16, 237, 127, 129, 127, 95, 127, 107, 127, 177, 128, 1, 127, 212, 127, 118, 127, 187, 127, 243, 127, 155, 127, 113, 127, 228, 127, 30, 128
20, 32, 156, 0, 28, 0, 236, 255, 102, 2, 10, 193, 86, 7, 9, 1, 138, 252, 0, 0, 0, 0, 0, 0, 0, 0, 0, 0, 0, 0
41, 16, 241, 127, 59, 127, 6, 127, 123, 127, 86, 128, 195, 126, 207, 127, 124, 127, 172, 127, 220, 127, 111, 127, 142, 127, 2, 128, 26, 128
42, 16, 190, 127, 49, 127, 206, 126, 195, 127, 120, 128, 105, 126, 195, 127, 116, 127, 84, 127, 152, 127, 27, 127, 95, 127, 216, 127, 14, 128
21, 32, 115, 0, 18, 0, 53, 0, 140, 2, 10, 193, 20, 7, 254, 0, 125, 252, 0, 0, 0, 0, 0, 0, 0, 0, 0, 0, 0, 0
43, 16, 20, 128, 135, 127, 71, 127, 223, 127, 16, 129, 106, 126, 222, 127, 118, 127, 151, 127, 224, 127, 119, 127, 128, 127, 244, 127, 70, 128
44, 16, 79, 128, 98, 127, 114, 127, 12, 128, 15, 129, 156, 126, 218, 127, 129, 127, 42, 128, 48, 128, 203, 127, 164, 127, 50, 128, 63, 128
22, 32, 83, 0, 21, 0, 62, 0, 165, 2, 109, 193, 35, 7, 8, 1, 144, 252, 0, 0, 0, 0, 0, 0, 0, 0, 0, 0, 0, 0
45, 16, 35, 128, 33, 127, 55, 127, 19, 128, 201, 128, 140, 126, 215, 127, 130, 127, 248, 127, 243, 127, 151, 127, 123, 127, 12, 128, 249, 127
46, 16, 81, 128, 71, 127, 81, 127, 163, 127, 185, 128, 127, 126, 227, 127, 129, 127, 169, 127, 243, 127, 134, 127, 167, 127, 226, 127, 44, 128
23, 32, 69, 0, 251, 255, 39, 0, 97, 2, 9, 194, 66, 7, 6, 1, 132, 252, 0, 0, 0, 0, 0, 0, 0, 0, 0, 0, 0, 0
47, 16, 190, 128, 118, 127, 105, 127, 146, 127, 124, 128, 148, 126, 221, 127, 132, 127, 237, 127, 17, 128, 155, 127, 246, 127, 249, 127, 114, 128
48, 16, 182, 128, 125, 127, 77, 127, 243, 127, 108, 128, 129, 126, 207, 127, 127, 127, 2, 128, 202, 127, 165, 127, 3, 128, 11, 128, 97, 128
24, 32, 81, 0, 255, 255, 12, 0, 53, 2, 4, 194, 12, 7, 8, 1, 136, 252, 0, 0, 0, 0, 0, 0, 0, 0, 0, 0, 0, 0
49, 16, 90, 128, 85, 127, 70, 127, 224, 127, 155, 128, 100, 126, 193, 127, 122, 127, 171, 127, 205, 127, 246, 127, 238, 127, 9, 128, 94, 128
50, 16, 14, 128, 101, 127, 55, 127, 144, 127, 155, 128, 108, 126, 193, 127, 131, 127, 105, 127, 19, 128, 6, 128, 192, 127, 24, 128, 74, 128
25, 32, 93, 0, 8, 0, 12, 0, 88, 2, 220, 193, 36, 7, 248, 0, 167, 252, 0, 0, 0, 0, 0, 0, 0, 0, 0, 0, 0, 0
51, 16, 165, 127, 139, 127, 32, 127, 226, 127, 211, 128, 178, 126, 182, 127, 130, 127, 105, 127, 245, 127, 161, 127, 133, 127, 246, 127, 243, 127
52, 16, 117, 127, 102, 127, 90, 127, 47, 128, 49, 129, 1, 127, 180, 127, 129, 127, 175, 127, 237, 127, 192, 127, 135, 127, 238, 127, 238, 127
26, 32, 134, 0, 252, 255, 12, 0, 110, 2, 215, 193, 109, 7, 1, 1, 149, 252, 0, 0, 0, 0, 0, 0, 0, 0, 0, 0, 0, 0
53, 16, 155, 127, 45, 127, 83, 127, 147, 127, 196, 128, 226, 126, 189, 127, 125, 127, 211, 127, 45, 128, 21, 128, 158, 127, 38, 128, 29, 128
54, 16, 146, 127, 53, 127, 223, 126, 113, 127, 63, 128, 192, 126, 166, 127, 118, 127, 197, 127, 41, 128, 254, 127, 133, 127, 49, 128, 10, 128
27, 32, 121, 0, 7, 0, 248, 255, 152, 2, 165, 193, 74, 7, 3, 1, 139, 252, 0, 0, 0, 0, 0, 0, 0, 0, 0, 0, 0, 0
55, 16, 119, 127, 132, 127, 15, 127, 48, 128, 189, 128, 238, 126, 176, 127, 127, 127, 237, 127, 244, 127, 7, 128, 142, 127, 40, 128, 5, 128
56, 16, 127, 127, 106, 127, 126, 127, 84, 128, 81, 129, 13, 127, 206, 127, 132, 127, 24, 128, 17, 128, 53, 128, 164, 127, 33, 128, 21, 128
28, 32, 120, 0, 26, 0, 245, 255, 166, 2, 167, 193, 63, 7, 0, 1, 148, 252, 0, 0, 0, 0, 0, 0, 0, 0, 0, 0, 0, 0
57, 16, 160, 127, 55, 127, 114, 127, 218, 127, 209, 128, 9, 127, 209, 127, 122, 127, 237, 127, 93, 128, 25, 128, 139, 127, 250, 127, 5, 128
58, 16, 162, 127, 133, 127, 92, 127, 216, 127, 105, 128, 19, 127, 220, 127, 116, 127, 227, 127, 112, 128, 4, 128, 137, 127, 231, 127, 252, 127
29, 32, 135, 0, 6, 0, 237, 255, 135, 2, 160, 193, 57, 7, 5, 1, 134, 252, 0, 0, 0, 0, 0, 0, 0, 0, 0, 0, 0, 0
59, 16, 101, 127, 139, 127, 60, 127, 16, 128, 239, 128, 45, 127, 200, 127, 126, 127, 10, 128, 49, 128, 32, 128, 147, 127, 26, 128, 232, 127
60, 16, 81, 127, 89, 127, 50, 127, 251, 127, 60, 129, 60, 127, 182, 127, 132, 127, 230, 127, 246, 127, 244, 127, 101, 127, 64, 128, 175, 127
30, 32, 128, 0, 40, 0, 232, 255, 103, 2, 144, 193, 28, 7, 242, 0, 144, 252, 0, 0, 0, 0, 0, 0, 0, 0, 0, 0, 0, 0
61, 16, 121, 127, 95, 127, 90, 127, 15, 128, 242, 128, 65, 127, 189, 127, 120, 127, 201, 127, 35, 128, 174, 127, 70, 127, 37, 128, 147, 127
62, 16, 107, 127, 94, 127, 68, 127, 11, 128, 219, 128, 62, 127, 178, 127, 118, 127, 0, 128, 88, 128, 204, 127, 113, 127, 16, 128, 179, 127
31, 32, 129, 0, 60, 0, 2, 0, 198, 2, 163, 193, 69, 7, 0, 1, 148, 252, 0, 0, 0, 0, 0, 0, 0, 0, 0, 0, 0, 0
63, 16, 89, 127, 101, 127, 42, 127, 240, 127, 243, 128, 119, 127, 192, 127, 139, 127, 59, 128, 87, 128, 72, 128, 192, 127, 60, 128, 248, 127
64, 16, 136, 127, 115, 127, 100, 127, 243, 127, 228, 128, 182, 127, 211, 127, 138, 127, 62, 128, 126, 128, 127, 128, 224, 127, 141, 128, 41, 128
32, 32, 122, 0, 56, 0, 29, 0, 200, 2, 154, 193, 56, 7, 5, 1, 139, 252, 0, 0, 0, 0, 0, 0, 0, 0, 0, 0, 0, 0
65, 16, 161, 127, 103, 127, 123, 127, 209, 127, 40, 129, 139, 127, 203, 127, 112, 127, 254, 127, 144, 128, 38, 128, 171, 127, 100, 128, 234, 127
66, 16, 116, 127, 61, 127, 30, 127, 140, 127, 8, 129, 85, 127, 180, 127, 117, 127, 170, 127, 50, 128, 201, 127, 108, 127, 39, 128, 169, 127
33, 32, 115, 0, 25, 0, 28, 0, 150, 2, 170, 193, 82, 7, 2, 1, 126, 252, 0, 0, 0, 0, 0, 0, 0, 0, 0, 0, 0, 0
67, 16, 95, 127, 71, 127, 220, 126, 77, 127, 94, 128, 108, 127, 172, 127, 133, 127, 129, 127, 231, 127, 193, 127, 107, 127, 60, 128, 216, 127
68, 16, 110, 127, 150, 127, 28, 127, 127, 127, 157, 128, 138, 127, 203, 127, 127, 127, 132, 127, 246, 127, 236, 127, 152, 127, 52, 128, 2, 128
34, 32, 111, 0, 32, 0, 23, 0, 148, 2, 180, 193, 14, 7, 249, 0, 148, 252, 0, 0, 0, 0, 0, 0, 0, 0, 0, 0, 0, 0
69, 16, 127, 127, 128, 127, 96, 127, 253, 127, 87, 129, 134, 127, 192, 127, 120, 127, 154, 127, 62, 128, 25, 128, 201, 127, 57, 128, 254, 127
70, 16, 158, 127, 77, 127, 80, 127, 236, 127, 11, 129, 115, 127, 146, 127, 126, 127, 163, 127, 68, 128, 9, 128, 188, 127, 89, 128, 255, 127
35, 32, 100, 0, 28, 0, 39, 0, 128, 2, 251, 193, 81, 7, 254, 0, 223, 252, 0, 0, 0, 0, 0, 0, 0, 0, 0, 0, 0, 0
71, 16, 151, 127, 115, 127, 59, 127, 93, 127, 152, 128, 110, 127, 141, 127, 131, 127, 134, 127, 36, 128, 227, 127, 126, 127, 88, 128, 240, 127
72, 16, 125, 127, 118, 127, 66, 127, 113, 127, 18, 129, 134, 127, 158, 127, 126, 127, 138, 127, 104, 128, 14, 128, 189, 127, 84, 128, 239, 127
36, 32, 112, 0, 13, 0, 70, 0, 131, 2, 240, 193, 87, 7, 250, 0, 148, 252, 0, 0, 0, 0, 0, 0, 0, 0, 0, 0, 0, 0
73, 16, 130, 127, 88, 127, 57, 127, 225, 127, 1, 129, 130, 127, 167, 127, 121, 127, 146, 127, 95, 128, 251, 127, 22, 128, 73, 128, 7, 128
74, 16, 126, 127, 88, 127, 42, 127, 145, 127, 101, 128, 83, 127, 150, 127, 123, 127, 97, 127, 217, 127, 100, 127, 187, 127, 226, 127, 189, 127
37, 32, 124, 0, 18, 0, 65, 0, 53, 2, 249, 193, 52, 7, 253, 0, 137, 252, 0, 0, 0, 0, 0, 0, 0, 0, 0, 0, 0, 0
75, 16, 85, 127, 113, 127, 52, 127, 219, 126, 153, 128, 77, 127, 159, 127, 127, 127, 72, 127, 175, 127, 21, 127, 43, 127, 132, 127, 75, 127
76, 16, 86, 127, 128, 127, 82, 127, 50, 127, 246, 128, 142, 127, 215, 127, 134, 127, 126, 127, 250, 127, 111, 127, 23, 127, 230, 127, 97, 127
38, 32, 122, 0, 8, 0, 41, 0, 146, 2, 205, 193, 170, 7, 253, 0, 141, 252, 0, 0, 0, 0, 0, 0, 0, 0, 0, 0, 0, 0
77, 16, 97, 127, 88, 127, 81, 127, 38, 128, 13, 129, 165, 127, 187, 127, 139, 127, 156, 127, 44, 128, 204, 127, 51, 127, 119, 128, 170, 127
78, 16, 70, 127, 68, 127, 43, 127, 186, 127, 253, 128, 78, 127, 124, 127, 133, 127, 125, 127, 46, 128, 170, 127, 24, 127, 63, 128, 149, 127
39, 32, 137, 0, 15, 0, 23, 0, 110, 2, 190, 193, 8, 8, 244, 0, 134, 252, 0, 0, 0, 0, 0, 0, 0, 0, 0, 0, 0, 0
79, 16, 63, 127, 102, 127, 24, 127, 239, 126, 181, 128, 33, 127, 131, 127, 129, 127, 138, 127, 68, 128, 126, 127, 35, 127, 188, 127, 116, 127
80, 16, 130, 127, 157, 127, 111, 127, 133, 127, 152, 128, 102, 127, 177, 127, 142, 127, 173, 127, 109, 128, 203, 127, 117, 127, 37, 128, 162, 127
40, 32, 116, 0, 47, 0, 16, 0, 34, 2, 145, 193, 107, 7, 3, 1, 143, 252, 0, 0, 0, 0, 0, 0, 0, 0, 0, 0, 0, 0
81, 16, 195, 127, 153, 127, 204, 127, 4, 128, 209, 128, 153, 127, 184, 127, 134, 127, 143, 127, 110, 128, 13, 128, 153, 127, 164, 128, 174, 127
82, 16, 176, 127, 82, 127, 136, 127, 207, 127, 4, 129, 118, 127, 143, 127, 118, 127, 100, 127, 22, 128, 215, 127, 141, 127, 46, 128, 134, 127
41, 32, 125, 0, 80, 0, 13, 0, 153, 2, 29, 193, 97, 7, 11, 1, 140, 252, 0, 0, 0, 0, 0, 0, 0, 0, 0, 0, 0, 0
83, 16, 156, 127, 122, 127, 47, 127, 2, 128, 215, 128, 94, 127, 154, 127, 127, 127, 95, 127, 204, 127, 187, 127, 175, 127, 5, 128, 156, 127
84, 16, 159, 127, 164, 127, 77, 127, 234, 127, 237, 128, 123, 127, 173, 127, 129, 127, 129, 127, 4, 128, 18, 128, 186, 127, 147, 128, 167, 127
42, 32, 75, 0, 67, 0, 26, 0, 220, 2, 158, 193, 79, 7, 255, 0, 161, 252, 0, 0, 0, 0, 0, 0, 0, 0, 0, 0, 0, 0
85, 16, 145, 127, 123, 127, 119, 127, 159, 127, 27, 129, 125, 127, 141, 127, 123, 127, 144, 127, 47, 128, 18, 128, 146, 127, 103, 128, 101, 127
86, 16, 147, 127, 127, 127, 110, 127, 70, 128, 7, 129, 134, 127, 130, 127, 128, 127, 158, 127, 21, 128, 231, 127, 164, 127, 28, 128, 100, 127
43, 32, 55, 0, 35, 0, 47, 0, 85, 2, 77, 194, 46, 7, 247, 0, 146, 252, 0, 0, 0, 0, 0, 0, 0, 0, 0, 0, 0, 0
87, 16, 132, 127, 129, 127, 106, 127, 146, 128, 88, 129, 158, 127, 152, 127, 126, 127, 222, 127, 57, 128, 40, 128, 175, 127, 170, 128, 162, 127
88, 16, 36, 127, 95, 127, 73, 127, 140, 127, 57, 129, 140, 127, 193, 127, 125, 127, 235, 127, 105, 128, 52, 128, 108, 127, 213, 128, 131, 127
44, 32, 84, 0, 25, 0, 32, 0, 97, 2, 223, 193, 12, 7, 251, 0, 94, 252, 0, 0, 0, 0, 0, 0, 0, 0, 0, 0, 0, 0
89, 16, 7, 127, 88, 127, 25, 127, 15, 127, 197, 128, 162, 127, 196, 127, 132, 127, 247, 127, 133, 128, 255, 127, 72, 127, 118, 128, 85, 127
90, 16, 131, 127, 142, 127, 97, 127, 222, 127, 101, 129, 22, 128, 201, 127, 136, 127, 113, 128, 220, 128, 40, 128, 136, 127, 168, 128, 162, 127
45, 32, 105, 0, 33, 0, 54, 0, 193, 2, 164, 193, 106, 7, 8, 1, 133, 252, 0, 0, 0, 0, 0, 0, 0, 0, 0, 0, 0, 0
91, 16, 200, 127, 180, 127, 180, 127, 57, 128, 197, 129, 16, 128, 225, 127, 135, 127, 136, 128, 225, 128, 101, 128, 195, 127, 241, 128, 236, 127
92, 16, 185, 127, 112, 127, 152, 127, 248, 127, 255, 128, 147, 127, 189, 127, 137, 127, 19, 128, 102, 128, 107, 128, 223, 127, 230, 128, 221, 127
46, 32, 140, 0, 21, 0, 73, 0, 126, 2, 197, 193, 22, 7, 250, 0, 141, 252, 0, 0, 0, 0, 0, 0, 0, 0, 0, 0, 0, 0
93, 16, 255, 127, 112, 127, 211, 127, 51, 128, 47, 129, 155, 127, 191, 127, 141, 127, 20, 128, 135, 128, 140, 128, 58, 128, 229, 128, 246, 127
94, 16, 104, 128, 189, 127, 8, 128, 191, 128, 17, 130, 194, 127, 211, 127, 142, 127, 83, 128, 212, 128, 129, 128, 132, 128, 181, 128, 24, 128
47, 32, 167, 0, 8, 0, 76, 0, 104, 2, 125, 193, 92, 7, 3, 1, 134, 252, 0, 0, 0, 0, 0, 0, 0, 0, 0, 0, 0, 0
95, 16, 133, 128, 138, 127, 148, 127, 165, 128, 169, 129, 146, 127, 168, 127, 126, 127, 254, 127, 66, 128, 19, 128, 63, 128, 121, 128, 183, 127
96, 16, 172, 128, 62, 127, 102, 127, 24, 128, 40, 129, 155, 127, 176, 127, 120, 127, 207, 127, 1, 128, 17, 128, 214, 127, 150, 128, 65, 127
48, 32, 170, 0, 12, 0, 87, 0, 106, 2, 61, 193, 126, 7, 246, 0, 148, 252, 0, 0, 0, 0, 0, 0, 0, 0, 0, 0, 0, 0
97, 16, 143, 128, 69, 127, 117, 127, 248, 127, 47, 129, 190, 127, 205, 127, 131, 127, 1, 128, 64, 128, 51, 128, 164, 127, 135, 128, 30, 127
98, 16, 23, 128, 91, 127, 39, 127, 243, 127, 28, 129, 149, 127, 187, 127, 130, 127, 236, 127, 41, 128, 235, 127, 110, 127, 93, 128, 14, 127
49, 32, 140, 0, 3, 0, 98, 0, 87, 2, 248, 192, 32, 7, 3, 1, 137, 252, 0, 0, 0, 0, 0, 0, 0, 0, 0, 0, 0, 0
99, 16, 226, 127, 90, 127, 23, 127, 7, 128, 121, 129, 144, 127, 183, 127, 128, 127, 25, 128, 69, 128, 236, 127, 96, 127, 117, 128, 63, 127
100, 16, 225, 127, 82, 127, 113, 127, 8, 128, 99, 129, 178, 127, 211, 127, 139, 127, 99, 128, 171, 128, 58, 128, 137, 127, 130, 128, 138, 127
50, 32, 103, 0, 249, 255, 91, 0, 51, 2, 41, 193, 11, 7, 253, 0, 140, 252, 0, 0, 0, 0, 0, 0, 0, 0, 0, 0, 0, 0
101, 16, 175, 127, 109, 127, 137, 127, 140, 127, 113, 128, 157, 127, 229, 127, 139, 127, 34, 128, 131, 128, 33, 128, 135, 127, 125, 128, 124, 127
102, 16, 118, 127, 114, 127, 89, 127, 92, 127, 128, 128, 165, 127, 200, 127, 132, 127, 251, 127, 46, 128, 224, 127, 138, 127, 82, 128, 129, 127
51, 32, 70, 0, 237, 255, 102, 0, 77, 2, 145, 193, 44, 7, 254, 0, 134, 252, 0, 0, 0, 0, 0, 0, 0, 0, 0, 0, 0, 0
103, 16, 90, 127, 112, 127, 107, 127, 211, 127, 20, 129, 190, 127, 188, 127, 137, 127, 15, 128, 36, 128, 208, 127, 157, 127, 159, 127, 130, 127
104, 16, 9, 127, 75, 127, 127, 127, 19, 128, 195, 128, 119, 127, 184, 127, 128, 127, 170, 127, 186, 127, 155, 127, 122, 127, 196, 126, 6, 127
52, 32, 29, 0, 225, 255, 69, 0, 231, 1, 27, 194, 87, 7, 1, 1, 141, 252, 0, 0, 0, 0, 0, 0, 0, 0, 0, 0, 0, 0
105, 16, 30, 127, 72, 127, 135, 127, 223, 127, 166, 128, 102, 127, 143, 127, 113, 127, 141, 127, 172, 127, 154, 127, 148, 127, 227, 126, 8, 127
106, 16, 163, 127, 188, 127, 191, 127, 229, 127, 189, 128, 210, 127, 143, 127, 129, 127, 42, 128, 81, 128, 16, 128, 20, 128, 177, 127, 238, 127
53, 32, 45, 0, 227, 255, 39, 0, 245, 1, 29, 194, 61, 7, 2, 1, 137, 252, 0, 0, 0, 0, 0, 0, 0, 0, 0, 0, 0, 0
107, 16, 157, 127, 198, 127, 154, 127, 34, 128, 99, 128, 232, 127, 169, 127, 134, 127, 87, 128, 57, 128, 21, 128, 24, 128, 202, 127, 36, 128
108, 16, 107, 127, 119, 127, 52, 127, 0, 128, 99, 128, 146, 127, 170, 127, 124, 127, 241, 127, 137, 127, 177, 127, 148, 127, 43, 127, 140, 127
54, 32, 93, 0, 11, 0, 19, 0, 248, 1, 35, 194, 131, 7, 243, 1, 123, 252, 0, 0, 0, 0, 0, 0, 0, 0, 0, 0, 0, 0
109, 16, 128, 127, 82, 127, 67, 127, 95, 127, 104, 128, 111, 127, 157, 127, 131, 127, 201, 127, 155, 127, 166, 127, 114, 127, 217, 126, 114, 127
110, 16, 134, 127, 88, 127, 145, 127, 62, 127, 30, 128, 172, 127, 147, 127, 139, 127, 32, 128, 29, 128, 11, 128, 189, 127, 97, 127, 221, 127
55, 32, 112, 0, 15, 0, 11, 0, 31, 2, 215, 193, 13, 7, 0, 1, 122, 252, 0, 0, 0, 0, 0, 0, 0, 0, 0, 0, 0, 0
111, 16, 183, 127, 173, 127, 160, 127, 252, 127, 161, 128, 241, 127, 185, 127, 133, 127, 84, 128, 32, 128, 125, 128, 3, 128, 20, 128, 48, 128
112, 16, 91, 128, 168, 127, 152, 127, 34, 128, 197, 128, 231, 127, 191, 127, 130, 127, 37, 128, 38, 128, 135, 128, 52, 128, 17, 128, 86, 128
56, 32, 124, 0, 15, 0, 4, 0, 38, 2, 166, 193, 79, 7, 254, 0, 136, 252, 0, 0, 0, 0, 0, 0, 0, 0, 0, 0, 0, 0
113, 16, 174, 128, 83, 127, 168, 127, 80, 127, 141, 127, 127, 127, 144, 127, 132, 127, 0, 128, 44, 128, 52, 128, 106, 128, 141, 127, 108, 128
114, 16, 69, 128, 104, 127, 145, 127, 51, 127, 102, 127, 81, 127, 131, 127, 128, 127, 1, 128, 188, 127, 253, 127, 119, 128, 105, 127, 91, 128
57, 32, 131, 0, 25, 0, 14, 0, 242, 1, 168, 193, 19, 7, 6, 1, 145, 252, 0, 0, 0, 0, 0, 0, 0, 0, 0, 0, 0, 0
115, 16, 231, 127, 176, 127, 115, 127, 181, 127, 65, 128, 188, 127, 153, 127, 122, 127, 245, 127, 145, 127, 11, 128, 47, 128, 157, 127, 34, 128
116, 16, 249, 127, 191, 127, 140, 127, 86, 127, 249, 127, 218, 127, 183, 127, 122, 127, 224, 127, 225, 127, 37, 128, 234, 127, 147, 127, 235, 127
58, 32, 131, 0, 79, 0, 38, 0, 76, 2, 89, 193, 64, 7, 242, 0, 137, 252, 0, 0, 0, 0, 0, 0, 0, 0, 0, 0, 0, 0
117, 16, 237, 127, 149, 127, 129, 127, 44, 127, 189, 127, 188, 127, 183, 127, 122, 127, 14, 128, 244, 127, 96, 128, 1, 128, 188, 127, 235, 127
118, 16, 166, 127, 112, 127, 96, 127, 217, 127, 112, 128, 213, 127, 188, 127, 122, 127, 34, 128, 208, 127, 111, 128, 32, 128, 214, 127, 14, 128
59, 32, 102, 0, 74, 0, 15, 0, 174, 2, 70, 193, 79, 7, 249, 0, 129, 252, 0, 0, 0, 0, 0, 0, 0, 0, 0, 0, 0, 0
119, 16, 133, 127, 125, 127, 110, 127, 205, 127, 100, 128, 178, 127, 199, 127, 119, 127, 211, 127, 210, 127, 13, 128, 254, 127, 148, 127, 245, 127
120, 16, 117, 127, 146, 127, 105, 127, 59, 127, 216, 127, 136, 127, 145, 127, 123, 127, 194, 127, 183, 127, 235, 127, 226, 127, 122, 127, 184, 127
60, 32, 79, 0, 48, 0, 39, 0, 77, 2, 252, 193, 100, 7, 255, 0, 140, 252, 0, 0, 0, 0, 0, 0, 0, 0, 0, 0, 0, 0
121, 16, 140, 127, 160, 127, 123, 127, 101, 127, 27, 128, 205, 127, 157, 127, 138, 127, 24, 128, 176, 127, 33, 128, 2, 128, 163, 127, 165, 127
122, 16, 177, 127, 143, 127, 158, 127, 180, 127, 16, 128, 249, 127, 200, 127, 137, 127, 65, 128, 0, 128, 20, 128, 252, 127, 155, 127, 146, 127
61, 32, 95, 0, 59, 0, 13, 0, 238, 1, 65, 194, 85, 7, 255, 0, 81, 252, 0, 0, 0, 0, 0, 0, 0, 0, 0, 0, 0, 0
123, 16, 148, 127, 139, 127, 165, 127, 156, 127, 168, 127, 214, 127, 167, 127, 131, 127, 15, 128, 16, 128, 25, 128, 234, 127, 167, 127, 161, 127
124, 16, 148, 127, 168, 127, 190, 127, 106, 127, 43, 128, 214, 127, 154, 127, 134, 127, 5, 128, 3, 128, 106, 128, 53, 128, 18, 128, 243, 127
62, 32, 167, 0, 59, 0, 226, 255, 79, 2, 132, 193, 23, 7, 252, 0, 144, 252, 0, 0, 0, 0, 0, 0, 0, 0, 0, 0, 0, 0
125, 16, 137, 127, 130, 127, 127, 127, 61, 127, 120, 128, 190, 127, 168, 127, 122, 127, 6, 128, 8, 128, 91, 128, 58, 128, 245, 127, 229, 127
126, 16, 75, 127, 127, 127, 48, 127, 65, 127, 234, 127, 128, 127, 176, 127, 110, 127, 198, 127, 183, 127, 246, 127, 177, 127, 104, 127, 130, 127
63, 32, 176, 0, 49, 0, 5, 0, 76, 2, 81, 193, 14, 7, 0, 1, 148, 252, 0, 0, 0, 0, 0, 0, 0, 0, 0, 0, 0, 0
127, 16, 68, 127, 163, 127, 89, 127, 68, 127, 211, 127, 119, 127, 145, 127, 122, 127, 147, 127, 105, 127, 210, 127, 119, 127, 136, 127, 95, 127
0, 16, 68, 127, 142, 127, 98, 127, 18, 127, 25, 128, 122, 127, 121, 127, 137, 127, 118, 127, 129, 127, 159, 127, 138, 127, 183, 127, 57, 127
0, 32, 160, 0, 47, 0, 41, 0, 157, 2, 12, 193, 59, 7, 1, 1, 130, 252, 0, 0, 0, 0, 0, 0, 0, 0, 0, 0, 0, 0
1, 16, 30, 127, 148, 127, 72, 127, 7, 127, 49, 128, 142, 127, 160, 127, 136, 127, 107, 127, 168, 127, 108, 127, 145, 127, 105, 127, 20, 127
2, 16, 47, 127, 151, 127, 150, 127, 59, 127, 149, 128, 189, 127, 173, 127, 134, 127, 148, 127, 210, 127, 215, 127, 198, 127, 166, 127, 98, 127
1, 32, 123, 0, 53, 0, 51, 0, 130, 2, 69, 193, 85, 7, 247, 0, 146, 252, 0, 0, 0, 0, 0, 0, 0, 0, 0, 0, 0, 0
3, 16, 101, 127, 133, 127, 196, 127, 92, 127, 172, 128, 159, 127, 155, 127, 138, 127, 156, 127, 162, 127, 12, 128, 201, 127, 0, 128, 127, 127
4, 16, 80, 127, 124, 127, 122, 127, 154, 127, 21, 128, 109, 127, 147, 127, 132, 127, 114, 127, 78, 127, 166, 127, 107, 127, 163, 127, 33, 127
2, 32, 107, 0, 4, 0, 50, 0, 9, 2, 223, 193, 101, 7, 244, 0, 142, 252, 0, 0, 0, 0, 0, 0, 0, 0, 0, 0, 0, 0
5, 16, 101, 127, 121, 127, 118, 127, 226, 127, 219, 127, 144, 127, 145, 127, 130, 127, 151, 127, 155, 127, 154, 127, 102, 127, 141, 127, 3, 127
6, 16, 146, 127, 147, 127, 147, 127, 168, 127, 61, 128, 177, 127, 151, 127, 126, 127, 188, 127, 231, 127, 190, 127, 159, 127, 172, 127, 30, 127
3, 32, 114, 0, 254, 255, 47, 0, 45, 2, 226, 193, 246, 6, 251, 0, 147, 252, 0, 0, 0, 0, 0, 0, 0, 0, 0, 0, 0, 0
7, 16, 86, 127, 146, 127, 125, 127, 88, 127, 180, 128, 206, 127, 146, 127, 122, 127, 178, 127, 228, 127, 177, 127, 154, 127, 83, 127, 18, 127
8, 16, 21, 127, 134, 127, 96, 127, 78, 127, 121, 128, 242, 127, 164, 127, 129, 127, 161, 127, 190, 127, 155, 127, 89, 127, 55, 127, 205, 126
4, 32, 118, 0, 2, 0, 31, 0, 29, 2, 184, 193, 106, 7, 252, 0, 144, 252, 0, 0, 0, 0, 0, 0, 0, 0, 0, 0, 0, 0
9, 16, 19, 127, 126, 127, 68, 127, 112, 127, 36, 128, 238, 127, 198, 127, 137, 127, 143, 127, 148, 127, 160, 127, 62, 127, 180, 127, 180, 126
10, 16, 62, 127, 139, 127, 97, 127, 199, 127, 107, 128, 225, 127, 217, 127, 141, 127, 227, 127, 216, 127, 207, 127, 162, 127, 14, 128, 35, 127
5, 32, 125, 0, 7, 0, 45, 0, 0, 2, 193, 193, 119, 7, 13, 1, 138, 252, 0, 0, 0, 0, 0, 0, 0, 0, 0, 0, 0, 0
11, 16, 120, 127, 188, 127, 183, 127, 203, 127, 153, 128, 205, 127, 231, 127, 138, 127, 89, 128, 58, 128, 32, 128, 35, 128, 43, 128, 159, 127
12, 16, 108, 127, 169, 127, 162, 127, 49, 127, 163, 128, 186, 127, 216, 127, 129, 127, 72, 128, 51, 128, 56, 128, 22, 128, 50, 128, 177, 127
6, 32, 146, 0, 8, 0, 8, 0, 2, 2, 191, 193, 87, 7, 252, 0, 139, 252, 0, 0, 0, 0, 0, 0, 0, 0, 0, 0, 0, 0
13, 16, 37, 127, 128, 127, 38, 127, 246, 126, 138, 128, 167, 127, 193, 127, 131, 127, 247, 127, 19, 128, 244, 127, 173, 127, 10, 128, 105, 127
14, 16, 3, 127, 121, 127, 33, 127, 94, 127, 89, 128, 99, 127, 195, 127, 134, 127, 219, 127, 59, 128, 191, 127, 79, 127, 169, 127, 234, 126
7, 32, 133, 0, 20, 0, 8, 0, 12, 2, 136, 193, 102, 7, 13, 1, 139, 252, 0, 0, 0, 0, 0, 0, 0, 0, 0, 0, 0, 0
15, 16, 234, 126, 132, 127, 65, 127, 144, 127, 170, 128, 58, 127, 194, 127, 125, 127, 202, 127, 12, 128, 105, 127, 27, 127, 11, 127, 119, 126
16, 16, 199, 126, 183, 127, 74, 127, 127, 127, 221, 128, 101, 127, 190, 127, 128, 127, 184, 127, 127, 127, 23, 127, 49, 127, 216, 126, 143, 126
8, 32, 115, 0, 15, 0, 233, 255, 231, 1, 117, 193, 32, 7, 253, 0, 127, 252, 0, 0, 0, 0, 0, 0, 0, 0, 0, 0, 0, 0
17, 16, 230, 126, 169, 127, 145, 127, 81, 127, 142, 128, 134, 127, 187, 127, 136, 127, 218, 127, 116, 127, 108, 127, 133, 127, 87, 127, 251, 126
18, 16, 46, 127, 125, 127, 154, 127, 34, 127, 124, 128, 86, 127, 200, 127, 131, 127, 235, 127, 232, 127, 7, 128, 227, 127, 121, 127, 77, 127
9, 32, 107, 0, 33, 0, 254, 255, 45, 2, 133, 193, 133, 7, 3, 1, 183, 252, 0, 0, 0, 0, 0, 0, 0, 0, 0, 0, 0, 0
19, 16, 71, 127, 137, 127, 93, 127, 39, 127, 116, 128, 47, 127, 219, 127, 128, 127, 229, 127, 36, 128, 36, 128, 30, 128, 57, 127, 133, 127
20, 16, 69, 127, 152, 127, 140, 127, 80, 127, 136, 128, 84, 127, 206, 127, 129, 127, 248, 127, 7, 128, 249, 127, 32, 128, 167, 127, 159, 127
20, 16, 69, 127, 152, 127, 140, 127, 80, 127, 136, 128, 84, 127, 206, 127, 129, 127, 248, 127, 7, 128, 249, 127, 32, 128, 167, 127, 159, 127
10, 32, 108, 0, 50, 0, 244, 255, 76, 2, 154, 193, 186, 7, 11, 1, 138, 252, 0, 0, 0, 0, 0, 0, 0, 0, 0, 0, 0, 0
21, 16, 78, 127, 175, 127, 223, 127, 74, 127, 214, 128, 127, 127, 232, 127, 132, 127, 47, 128, 23, 128, 252, 127, 39, 128, 20, 128, 165, 127
22, 16, 47, 127, 162, 127, 133, 127, 252, 126, 128, 128, 108, 127, 243, 127, 136, 127, 67, 128, 70, 128, 232, 127, 27, 128, 200, 127, 151, 127
11, 32, 74, 0, 71, 0, 251, 255, 90, 2, 130, 193, 73, 7, 6, 1, 193, 252, 0, 0, 0, 0, 0, 0, 0, 0, 0, 0, 0, 0
23, 16, 209, 126, 115, 127, 236, 126, 174, 126, 19, 128, 17, 127, 163, 127, 135, 127, 176, 127, 240, 127, 114, 127, 124, 127, 92, 127, 29, 127
24, 16, 93, 126, 105, 127, 203, 126, 199, 126, 67, 128, 218, 126, 130, 127, 126, 127, 50, 127, 119, 127, 7, 127, 218, 126, 25, 127, 124, 126
12, 32, 90, 0, 66, 0, 13, 0, 114, 2, 159, 193, 110, 7, 250, 0, 141, 252, 0, 0, 0, 0, 0, 0, 0, 0, 0, 0, 0, 0
25, 16, 104, 126, 113, 127, 38, 127, 37, 127, 141, 128, 255, 126, 180, 127, 126, 127, 130, 127, 133, 127, 67, 127, 40, 127, 35, 127, 155, 126
26, 16, 253, 126, 158, 127, 143, 127, 48, 127, 217, 128, 26, 127, 207, 127, 139, 127, 201, 127, 173, 127, 151, 127, 192, 127, 141, 127, 28, 127
13, 32, 80, 0, 44, 0, 32, 0, 125, 2, 209, 193, 109, 7, 249, 0, 139, 252, 0, 0, 0, 0, 0, 0, 0, 0, 0, 0, 0, 0
27, 16, 27, 127, 167, 127, 115, 127, 235, 126, 177, 128, 245, 126, 156, 127, 135, 127, 83, 127, 82, 127, 1, 127, 175, 127, 141, 127, 20, 127
28, 16, 177, 126, 130, 127, 86, 127, 163, 126, 234, 127, 133, 126, 119, 127, 118, 127, 207, 126, 202, 126, 41, 126, 99, 127, 254, 126, 225, 126
14, 32, 90, 0, 37, 0, 37, 0, 127, 2, 225, 193, 137, 7, 254, 0, 133, 252, 0, 0, 0, 0, 0, 0, 0, 0, 0, 0, 0, 0
29, 16, 168, 126, 146, 127, 149, 127, 162, 126, 235, 127, 98, 126, 166, 127, 120, 127, 16, 127, 253, 126, 87, 126, 143, 127, 222, 126, 11, 127
30, 16, 35, 127, 150, 127, 142, 127, 3, 127, 167, 128, 216, 126, 208, 127, 137, 127, 158, 127, 198, 127, 249, 126, 226, 127, 86, 127, 63, 127
15, 32, 98, 0, 6, 0, 24, 0, 96, 2, 210, 193, 120, 7, 247, 0, 143, 252, 0, 0, 0, 0, 0, 0, 0, 0, 0, 0, 0, 0
31, 16, 72, 127, 135, 127, 70, 127, 10, 127, 100, 128, 25, 127, 216, 127, 143, 127, 154, 127, 1, 128, 11, 127, 201, 127, 155, 127, 44, 127
32, 16, 214, 126, 127, 127, 250, 126, 165, 126, 206, 127, 219, 126, 185, 127, 133, 127, 37, 127, 117, 127, 200, 126, 75, 127, 63, 127, 222, 126
16, 32, 97, 0, 14, 0, 25, 0, 75, 2, 136, 193, 39, 7, 8, 1, 176, 252, 0, 0, 0, 0, 0, 0, 0, 0, 0, 0, 0, 0
33, 16, 169, 126, 131, 127, 246, 126, 113, 126, 44, 128, 216, 126, 173, 127, 122, 127, 246, 126, 3, 127, 144, 126, 6, 127, 212, 126, 186, 126
34, 16, 16, 127, 143, 127, 78, 127, 155, 126, 118, 128, 234, 126, 207, 127, 124, 127, 22, 127, 32, 127, 136, 126, 16, 127, 240, 126, 179, 126
17, 32, 95, 0, 238, 255, 33, 0, 42, 2, 136, 193, 141, 7, 249, 0, 129, 252, 0, 0, 0, 0, 0, 0, 0, 0, 0, 0, 0, 0
35, 16, 74, 127, 106, 127, 61, 127, 171, 126, 62, 128, 194, 126, 179, 127, 127, 127, 33, 127, 72, 127, 215, 126, 253, 126, 246, 126, 118, 126
36, 16, 72, 127, 138, 127, 46, 127, 117, 126, 118, 128, 208, 126, 169, 127, 130, 127, 39, 127, 118, 127, 94, 127, 58, 127, 228, 126, 164, 126
18, 32, 83, 0, 236, 255, 40, 0, 41, 2, 157, 193, 92, 7, 252, 0, 173, 252, 0, 0, 0, 0, 0, 0, 0, 0, 0, 0, 0, 0
37, 16, 115, 127, 189, 127, 137, 127, 136, 126, 158, 128, 252, 126, 206, 127, 133, 127, 54, 127, 172, 127, 164, 127, 236, 127, 83, 127, 74, 127
38, 16, 149, 127, 116, 127, 101, 127, 170, 126, 81, 128, 220, 126, 202, 127, 130, 127, 28, 127, 112, 127, 127, 127, 12, 128, 148, 127, 84, 127
19, 32, 88, 0, 244, 255, 253, 255, 15, 2, 203, 193, 37, 7, 254, 0, 139, 252, 0, 0, 0, 0, 0, 0, 0, 0, 0, 0, 0, 0
39, 16, 142, 127, 101, 127, 75, 127, 132, 126, 70, 128, 204, 126, 198, 127, 134, 127, 0, 127, 46, 127, 110, 127, 184, 127, 102, 127, 37, 127
40, 16, 168, 127, 184, 127, 177, 127, 146, 126, 71, 128, 6, 127, 182, 127, 126, 127, 38, 127, 101, 127, 170, 127, 196, 127, 130, 127, 127, 127
20, 32, 110, 0, 248, 255, 252, 255, 14, 2, 161, 193, 115, 7, 254, 0, 142, 252, 0, 0, 0, 0, 0, 0, 0, 0, 0, 0, 0, 0
41, 16, 169, 127, 181, 127, 140, 127, 114, 126, 13, 128, 253, 126, 160, 127, 107, 127, 29, 127, 138, 127, 181, 127, 207, 127, 120, 127, 123, 127
42, 16, 109, 127, 101, 127, 35, 127, 86, 126, 87, 128, 221, 126, 157, 127, 114, 127, 240, 126, 117, 127, 100, 127, 118, 127, 56, 127, 242, 126
21, 32, 96, 0, 40, 0, 234, 255, 98, 2, 118, 193, 19, 7, 255, 0, 132, 252, 0, 0, 0, 0, 0, 0, 0, 0, 0, 0, 0, 0
43, 16, 79, 127, 110, 127, 62, 127, 16, 127, 217, 128, 41, 127, 195, 127, 134, 127, 53, 127, 142, 127, 95, 127, 89, 127, 113, 127, 227, 126
44, 16, 122, 127, 191, 127, 119, 127, 145, 127, 3, 129, 128, 127, 254, 127, 136, 127, 138, 127, 154, 127, 189, 127, 178, 127, 177, 127, 96, 127
22, 32, 68, 0, 19, 0, 253, 255, 120, 2, 236, 193, 66, 7, 0, 1, 140, 252, 0, 0, 0, 0, 0, 0, 0, 0, 0, 0, 0, 0
45, 16, 213, 127, 167, 127, 162, 127, 2, 127, 9, 129, 143, 127, 233, 127, 129, 127, 139, 127, 155, 127, 245, 127, 254, 127, 164, 127, 161, 127
46, 16, 242, 127, 142, 127, 205, 127, 186, 126, 196, 128, 125, 127, 189, 127, 134, 127, 126, 127, 196, 127, 252, 127, 5, 128, 203, 127, 106, 127
23, 32, 79, 0, 3, 0, 252, 255, 44, 2, 227, 193, 148, 7, 247, 0, 123, 252, 0, 0, 0, 0, 0, 0, 0, 0, 0, 0, 0, 0
47, 16, 157, 127, 161, 127, 168, 127, 131, 127, 227, 128, 136, 127, 199, 127, 136, 127, 122, 127, 214, 127, 252, 127, 254, 127, 215, 127, 75, 127
48, 16, 64, 127, 148, 127, 71, 127, 209, 127, 75, 129, 135, 127, 213, 127, 127, 127, 46, 127, 158, 127, 181, 127, 245, 127, 89, 127, 103, 127
24, 32, 101, 0, 22, 0, 6, 0, 49, 2, 165, 193, 63, 7, 252, 0, 142, 252, 0, 0, 0, 0, 0, 0, 0, 0, 0, 0, 0, 0
49, 16, 62, 127, 193, 127, 61, 127, 47, 127, 215, 128, 130, 127, 198, 127, 123, 127, 211, 126, 41, 127, 110, 127, 234, 127, 109, 127, 103, 127
50, 16, 90, 127, 203, 127, 127, 127, 243, 126, 154, 128, 142, 127, 142, 127, 128, 127, 248, 126, 248, 126, 160, 127, 248, 127, 50, 128, 98, 127
25, 32, 112, 0, 33, 0, 32, 0, 73, 2, 193, 193, 255, 6, 249, 0, 138, 252, 0, 0, 0, 0, 0, 0, 0, 0, 0, 0, 0, 0
51, 16, 126, 127, 154, 127, 195, 127, 46, 127, 36, 129, 131, 127, 141, 127, 138, 127, 108, 127, 121, 127, 248, 127, 41, 128, 140, 128, 151, 127
52, 16, 156, 127, 144, 127, 158, 127, 29, 127, 69, 129, 142, 127, 190, 127, 138, 127, 163, 127, 10, 128, 248, 127, 48, 128, 164, 128, 177, 127
26, 32, 141, 0, 29, 0, 32, 0, 119, 2, 179, 193, 99, 7, 5, 1, 139, 252, 0, 0, 0, 0, 0, 0, 0, 0, 0, 0, 0, 0
53, 16, 78, 127, 137, 127, 48, 127, 227, 126, 206, 128, 151, 127, 147, 127, 133, 127, 147, 127, 9, 128, 208, 127, 236, 127, 218, 128, 133, 127
54, 16, 5, 127, 159, 127, 64, 127, 21, 127, 228, 128, 127, 127, 130, 127, 139, 127, 152, 127, 1, 128, 213, 127, 202, 127, 234, 128, 133, 127
27, 32, 137, 0, 31, 0, 15, 0, 86, 2, 85, 193, 71, 7, 245, 0, 140, 252, 0, 0, 0, 0, 0, 0, 0, 0, 0, 0, 0, 0
55, 16, 57, 127, 162, 127, 147, 127, 27, 127, 123, 129, 141, 127, 189, 127, 128, 127, 138, 127, 245, 127, 240, 127, 237, 127, 164, 128, 185, 127
56, 16, 142, 127, 132, 127, 163, 127, 214, 126, 24, 129, 159, 127, 188, 127, 124, 127, 91, 127, 177, 127, 250, 127, 29, 128, 126, 128, 178, 127
28, 32, 136, 0, 19, 0, 21, 0, 57, 2, 243, 192, 48, 7, 255, 0, 141, 252, 0, 0, 0, 0, 0, 0, 0, 0, 0, 0, 0, 0
57, 16, 159, 127, 167, 127, 133, 127, 40, 127, 55, 128, 136, 127, 161, 127, 143, 127, 103, 127, 179, 127, 3, 128, 59, 128, 177, 128, 136, 127
58, 16, 134, 127, 203, 127, 120, 127, 178, 127, 220, 128, 189, 127, 171, 127, 147, 127, 166, 127, 223, 127, 38, 128, 68, 128, 199, 128, 158, 127
29, 32, 92, 0, 254, 255, 45, 0, 40, 2, 236, 192, 75, 7, 9, 1, 133, 252, 0, 0, 0, 0, 0, 0, 0, 0, 0, 0, 0, 0
59, 16, 83, 127, 176, 127, 140, 127, 129, 127, 199, 129, 242, 127, 179, 127, 132, 127, 118, 127, 157, 127, 245, 127, 252, 127, 113, 128, 137, 127
60, 16, 253, 126, 104, 127, 83, 127, 247, 126, 232, 128, 172, 127, 144, 127, 116, 127, 255, 126, 66, 127, 128, 127, 136, 127, 6, 128, 46, 127
30, 32, 66, 0, 245, 255, 57, 0, 80, 2, 130, 193, 65, 7, 4, 1, 126, 252, 0, 0, 0, 0, 0, 0, 0, 0, 0, 0, 0, 0
61, 16, 245, 126, 109, 127, 7, 127, 208, 126, 131, 128, 147, 127, 151, 127, 122, 127, 31, 127, 143, 127, 150, 127, 126, 127, 90, 128, 89, 127
62, 16, 48, 127, 169, 127, 47, 127, 14, 127, 96, 129, 209, 127, 201, 127, 132, 127, 162, 127, 238, 127, 18, 128, 187, 127, 242, 128, 197, 127
31, 32, 43, 0, 205, 255, 48, 0, 33, 2, 251, 193, 45, 7, 252, 0, 134, 252, 0, 0, 0, 0, 0, 0, 0, 0, 0, 0, 0, 0
63, 16, 28, 127, 165, 127, 114, 127, 32, 127, 246, 128, 186, 127, 184, 127, 123, 127, 191, 127, 239, 127, 52, 128, 170, 127, 194, 128, 188, 127
64, 16, 15, 127, 164, 127, 90, 127, 231, 126, 245, 127, 114, 127, 169, 127, 119, 127, 144, 127, 239, 127, 247, 127, 130, 127, 109, 128, 193, 127
32, 32, 51, 0, 192, 255, 23, 0, 243, 1, 31, 194, 10, 7, 251, 0, 144, 252, 0, 0, 0, 0, 0, 0, 0, 0, 0, 0, 0, 0
65, 16, 82, 127, 173, 127, 62, 127, 18, 127, 115, 128, 150, 127, 181, 127, 124, 127, 146, 127, 233, 127, 240, 127, 174, 127, 183, 128, 22, 128
66, 16, 103, 127, 163, 127, 112, 127, 141, 127, 206, 128, 207, 127, 185, 127, 125, 127, 161, 127, 191, 127, 0, 128, 195, 127, 228, 128, 42, 128
33, 32, 82, 0, 214, 255, 249, 255, 23, 2, 4, 194, 82, 7, 1, 1, 127, 252, 0, 0, 0, 0, 0, 0, 0, 0, 0, 0, 0, 0
67, 16, 65, 127, 163, 127, 133, 127, 156, 127, 75, 128, 187, 127, 189, 127, 129, 127, 91, 127, 104, 127, 206, 127, 103, 127, 100, 128, 219, 127
68, 16, 24, 127, 160, 127, 97, 127, 110, 127, 181, 128, 158, 127, 174, 127, 136, 127, 44, 127, 69, 127, 112, 127, 23, 127, 1, 128, 145, 127
34, 32, 112, 0, 220, 255, 252, 255, 3, 2, 206, 193, 92, 7, 8, 1, 132, 252, 0, 0, 0, 0, 0, 0, 0, 0, 0, 0, 0, 0
69, 16, 34, 127, 160, 127, 135, 127, 131, 127, 35, 129, 157, 127, 180, 127, 124, 127, 75, 127, 52, 127, 14, 127, 33, 127, 220, 127, 133, 127
70, 16, 76, 127, 142, 127, 160, 127, 138, 127, 92, 128, 170, 127, 169, 127, 104, 127, 84, 127, 56, 127, 228, 126, 53, 127, 179, 127, 138, 127
35, 32, 111, 0, 217, 255, 246, 255, 255, 1, 104, 193, 31, 7, 2, 1, 110, 252, 0, 0, 0, 0, 0, 0, 0, 0, 0, 0, 0, 0
71, 16, 61, 127, 180, 127, 105, 127, 140, 127, 237, 127, 166, 127, 157, 127, 115, 127, 64, 127, 78, 127, 246, 126, 34, 127, 190, 127, 130, 127
72, 16, 26, 127, 226, 127, 103, 127, 225, 127, 128, 128, 156, 127, 203, 127, 134, 127, 97, 127, 63, 127, 32, 127, 63, 127, 184, 127, 176, 127
36, 32, 113, 0, 231, 255, 255, 255, 2, 2, 184, 193, 45, 7, 2, 1, 137, 252, 0, 0, 0, 0, 0, 0, 0, 0, 0, 0, 0, 0
73, 16, 35, 127, 164, 127, 143, 127, 44, 128, 163, 128, 156, 127, 199, 127, 125, 127, 147, 127, 84, 127, 51, 127, 127, 127, 156, 127, 7, 128
74, 16, 89, 127, 145, 127, 149, 127, 240, 127, 44, 128, 150, 127, 172, 127, 116, 127, 136, 127, 140, 127, 33, 127, 136, 127, 201, 127, 2, 128
37, 32, 122, 0, 12, 0, 21, 0, 222, 1, 131, 193, 247, 6, 254, 0, 146, 252, 0, 0, 0, 0, 0, 0, 0, 0, 0, 0, 0, 0
75, 16, 111, 127, 176, 127, 120, 127, 153, 127, 114, 128, 155, 127, 202, 127, 121, 127, 91, 127, 114, 127, 34, 127, 122, 127, 0, 128, 228, 127
76, 16, 147, 127, 141, 127, 92, 127, 161, 127, 211, 128, 182, 127, 226, 127, 130, 127, 49, 127, 71, 127, 58, 127, 127, 127, 228, 127, 24, 128
38, 32, 106, 0, 34, 0, 22, 0, 37, 2, 113, 193, 244, 6, 12, 1, 140, 252, 0, 0, 0, 0, 0, 0, 0, 0, 0, 0, 0, 0
77, 16, 181, 127, 154, 127, 115, 127, 159, 127, 79, 128, 179, 127, 197, 127, 130, 127, 12, 127, 31, 127, 247, 126, 80, 127, 127, 127, 23, 128
78, 16, 78, 127, 169, 127, 95, 127, 120, 127, 1, 128, 158, 127, 152, 127, 116, 127, 254, 126, 215, 126, 89, 126, 232, 126, 44, 127, 142, 127
39, 32, 68, 0, 37, 0, 3, 0, 77, 2, 107, 193, 254, 6, 253, 0, 131, 252, 0, 0, 0, 0, 0, 0, 0, 0, 0, 0, 0, 0
79, 16, 196, 126, 149, 127, 0, 127, 95, 127, 49, 128, 137, 127, 173, 127, 119, 127, 191, 126, 161, 126, 4, 126, 143, 126, 1, 127, 21, 127
80, 16, 196, 126, 140, 127, 242, 126, 99, 127, 54, 128, 83, 127, 188, 127, 127, 127, 130, 126, 174, 126, 5, 126, 117, 126, 234, 126, 38, 127
40, 32, 53, 0, 28, 0, 17, 0, 26, 2, 80, 194, 38, 7, 255, 0, 132, 252, 0, 0, 0, 0, 0, 0, 0, 0, 0, 0, 0, 0
81, 16, 86, 127, 119, 127, 98, 127, 177, 127, 64, 128, 61, 127, 137, 127, 125, 127, 169, 126, 188, 126, 72, 126, 186, 126, 31, 127, 128, 127
82, 16, 171, 127, 155, 127, 171, 127, 213, 127, 85, 128, 111, 127, 131, 127, 126, 127, 5, 127, 232, 126, 173, 126, 5, 127, 138, 127, 165, 127
41, 32, 132, 0, 67, 0, 232, 255, 248, 1, 204, 193, 13, 7, 1, 1, 148, 252, 0, 0, 0, 0, 0, 0, 0, 0, 0, 0, 0, 0
83, 16, 136, 127, 173, 127, 125, 127, 123, 127, 114, 128, 141, 127, 166, 127, 126, 127, 47, 127, 96, 127, 229, 126, 14, 127, 118, 127, 134, 127
84, 16, 105, 127, 148, 127, 60, 127, 131, 127, 123, 128, 107, 127, 174, 127, 123, 127, 223, 126, 114, 127, 205, 126, 237, 126, 255, 126, 88, 127
42, 32, 126, 0, 68, 0, 10, 0, 121, 2, 134, 193, 40, 7, 252, 0, 142, 252, 0, 0, 0, 0, 0, 0, 0, 0, 0, 0, 0, 0
85, 16, 142, 127, 166, 127, 69, 127, 35, 128, 132, 128, 105, 127, 188, 127, 129, 127, 166, 126, 50, 127, 225, 126, 223, 126, 49, 127, 80, 127
86, 16, 208, 127, 172, 127, 93, 127, 47, 128, 220, 128, 145, 127, 207, 127, 133, 127, 254, 126, 49, 127, 25, 127, 4, 127, 197, 127, 127, 127
43, 32, 140, 0, 31, 0, 12, 0, 116, 2, 52, 193, 247, 6, 255, 0, 128, 252, 0, 0, 0, 0, 0, 0, 0, 0, 0, 0, 0, 0
87, 16, 200, 127, 161, 127, 117, 127, 183, 127, 75, 129, 130, 127, 195, 127, 125, 127, 41, 127, 52, 127, 245, 126, 22, 127, 197, 127, 154, 127
88, 16, 123, 127, 148, 127, 87, 127, 143, 127, 242, 128, 85, 127, 168, 127, 121, 127, 203, 126, 19, 127, 193, 126, 236, 126, 90, 127, 119, 127
44, 32, 110, 0, 24, 0, 27, 0, 151, 2, 69, 193, 27, 7, 253, 0, 145, 252, 0, 0, 0, 0, 0, 0, 0, 0, 0, 0, 0, 0
89, 16, 111, 127, 153, 127, 50, 127, 194, 127, 87, 128, 68, 127, 174, 127, 129, 127, 140, 126, 252, 126, 207, 126, 240, 126, 80, 127, 123, 127
90, 16, 155, 127, 136, 127, 75, 127, 125, 127, 92, 128, 56, 127, 175, 127, 127, 127, 144, 126, 19, 127, 200, 126, 19, 127, 168, 127, 150, 127
45, 32, 82, 0, 38, 0, 70, 0, 41, 2, 204, 193, 238, 6, 7, 1, 122, 252, 0, 0, 0, 0, 0, 0, 0, 0, 0, 0, 0, 0
91, 16, 124, 127, 123, 127, 120, 127, 7, 127, 175, 128, 23, 127, 123, 127, 114, 127, 149, 126, 5, 127, 140, 126, 252, 126, 123, 127, 128, 127
92, 16, 120, 127, 179, 127, 151, 127, 116, 127, 9, 129, 56, 127, 125, 127, 117, 127, 201, 126, 20, 127, 205, 126, 50, 127, 42, 127, 178, 127
46, 32, 81, 0, 20, 0, 53, 0, 239, 1, 254, 193, 21, 7, 3, 1, 133, 252, 0, 0, 0, 0, 0, 0, 0, 0, 0, 0, 0, 0
93, 16, 200, 127, 180, 127, 141, 127, 31, 128, 211, 128, 139, 127, 167, 127, 126, 127, 234, 126, 122, 127, 124, 127, 166, 127, 101, 127, 19, 128
94, 16, 231, 127, 172, 127, 136, 127, 255, 127, 94, 128, 152, 127, 192, 127, 118, 127, 220, 126, 159, 127, 121, 127, 156, 127, 165, 127, 1, 128
47, 32, 125, 0, 254, 255, 27, 0, 74, 2, 214, 193, 11, 7, 253, 0, 131, 252, 0, 0, 0, 0, 0, 0, 0, 0, 0, 0, 0, 0
95, 16, 12, 128, 220, 127, 165, 127, 225, 127, 149, 128, 144, 127, 216, 127, 119, 127, 12, 127, 91, 127, 19, 127, 116, 127, 163, 127, 214, 127
96, 16, 110, 128, 185, 127, 148, 127, 24, 128, 237, 128, 168, 127, 192, 127, 129, 127, 55, 127, 85, 127, 49, 127, 151, 127, 136, 127, 12, 128
48, 32, 118, 0, 3, 0, 21, 0, 56, 2, 189, 193, 68, 7, 2, 1, 143, 252, 0, 0, 0, 0, 0, 0, 0, 0, 0, 0, 0, 0
97, 16, 113, 128, 129, 127, 81, 127, 125, 127, 177, 128, 168, 127, 170, 127, 127, 127, 210, 126, 75, 127, 53, 127, 111, 127, 73, 127, 2, 128
98, 16, 237, 127, 136, 127, 50, 127, 222, 126, 96, 128, 141, 127, 175, 127, 120, 127, 96, 126, 183, 126, 190, 126, 239, 126, 238, 126, 122, 127
49, 32, 109, 0, 16, 0, 37, 0, 66, 2, 152, 193, 27, 7, 255, 0, 236, 252, 0, 0, 0, 0, 0, 0, 0, 0, 0, 0, 0, 0
99, 16, 214, 127, 175, 127, 97, 127, 144, 127, 176, 128, 129, 127, 190, 127, 130, 127, 126, 126, 145, 126, 205, 126, 229, 126, 249, 126, 101, 127
100, 16, 12, 128, 186, 127, 122, 127, 52, 128, 236, 128, 137, 127, 193, 127, 131, 127, 177, 126, 8, 127, 55, 127, 43, 127, 52, 127, 196, 127
50, 32, 137, 0, 10, 0, 4, 0, 4, 2, 118, 193, 234, 6, 9, 1, 147, 252, 0, 0, 0, 0, 0, 0, 0, 0, 0, 0, 0, 0
101, 16, 213, 127, 139, 127, 70, 127, 208, 127, 144, 128, 139, 127, 161, 127, 116, 127, 156, 126, 30, 127, 241, 126, 4, 127, 29, 127, 188, 127
102, 16, 196, 127, 163, 127, 57, 127, 100, 127, 99, 128, 139, 127, 178, 127, 121, 127, 142, 126, 250, 126, 138, 126, 186, 126, 251, 126, 131, 127
51, 32, 135, 0, 14, 0, 5, 0, 36, 2, 117, 193, 18, 7, 252, 0, 142, 252, 0, 0, 0, 0, 0, 0, 0, 0, 0, 0, 0, 0
103, 16, 228, 127, 189, 127, 68, 127, 113, 127, 148, 128, 138, 127, 170, 127, 127, 127, 181, 126, 7, 127, 154, 126, 181, 126, 9, 127, 154, 127
104, 16, 169, 127, 128, 127, 42, 127, 108, 127, 100, 128, 151, 127, 140, 127, 121, 127, 181, 126, 214, 126, 166, 126, 156, 126, 215, 126, 113, 127
52, 32, 127, 0, 18, 0, 18, 0, 47, 2, 180, 193, 78, 7, 252, 0, 148, 252, 0, 0, 0, 0, 0, 0, 0, 0, 0, 0, 0, 0
105, 16, 100, 127, 143, 127, 65, 127, 162, 127, 67, 128, 180, 127, 182, 127, 126, 127, 145, 126, 184, 126, 153, 126, 120, 126, 127, 126, 47, 127
106, 16, 138, 127, 171, 127, 91, 127, 40, 128, 213, 128, 193, 127, 199, 127, 125, 127, 170, 126, 18, 127, 181, 126, 148, 126, 197, 126, 110, 127
53, 32, 131, 0, 45, 0, 28, 0, 58, 2, 133, 193, 44, 7, 4, 1, 145, 252, 0, 0, 0, 0, 0, 0, 0, 0, 0, 0, 0, 0
107, 16, 176, 127, 137, 127, 42, 127, 166, 127, 181, 128, 148, 127, 171, 127, 113, 127, 203, 126, 248, 126, 159, 126, 156, 126, 6, 127, 135, 127
108, 16, 117, 127, 130, 127, 10, 127, 169, 126, 253, 127, 115, 127, 153, 127, 111, 127, 164, 126, 127, 126, 88, 126, 119, 126, 210, 126, 54, 127
54, 32, 110, 0, 73, 0, 36, 0, 92, 2, 154, 193, 82, 7, 7, 1, 132, 252, 0, 0, 0, 0, 0, 0, 0, 0, 0, 0, 0, 0
109, 16, 102, 127, 154, 127, 85, 127, 75, 127, 24, 128, 161, 127, 162, 127, 123, 127, 138, 126, 165, 126, 150, 126, 146, 126, 224, 126, 92, 127
110, 16, 141, 127, 156, 127, 130, 127, 111, 128, 112, 128, 200, 127, 178, 127, 127, 127, 138, 126, 242, 126, 5, 127, 168, 126, 225, 126, 160, 127
55, 32, 112, 0, 61, 0, 59, 0, 136, 2, 164, 193, 57, 7, 244, 0, 141, 252, 0, 0, 0, 0, 0, 0, 0, 0, 0, 0, 0, 0
111, 16, 143, 127, 130, 127, 106, 127, 48, 128, 165, 128, 235, 127, 177, 127, 130, 127, 168, 126, 253, 126, 7, 127, 155, 126, 182, 126, 143, 127
112, 16, 148, 127, 130, 127, 143, 127, 82, 127, 14, 129, 28, 128, 182, 127, 128, 127, 238, 126, 68, 127, 245, 126, 201, 126, 240, 126, 192, 127
56, 32, 106, 0, 54, 0, 46, 0, 102, 2, 163, 193, 80, 7, 254, 0, 145, 252, 0, 0, 0, 0, 0, 0, 0, 0, 0, 0, 0, 0
113, 16, 142, 127, 112, 127, 140, 127, 242, 126, 236, 128, 8, 128, 195, 127, 115, 127, 208, 126, 83, 127, 9, 127, 206, 126, 55, 127, 203, 127
114, 16, 87, 127, 118, 127, 77, 127, 95, 127, 58, 128, 221, 127, 185, 127, 114, 127, 69, 126, 252, 126, 14, 127, 162, 126, 34, 127, 119, 127
57, 32, 99, 0, 57, 0, 33, 0, 93, 2, 133, 193, 18, 7, 4, 1, 136, 252, 0, 0, 0, 0, 0, 0, 0, 0, 0, 0, 0, 0
115, 16, 75, 127, 192, 127, 84, 127, 253, 127, 91, 128, 248, 127, 176, 127, 126, 127, 11, 126, 19, 127, 27, 127, 214, 126, 41, 127, 173, 127
116, 16, 118, 127, 157, 127, 128, 127, 212, 127, 18, 129, 37, 128, 184, 127, 120, 127, 48, 126, 120, 127, 69, 127, 38, 127, 49, 127, 255, 127
58, 32, 94, 0, 51, 0, 46, 0, 112, 2, 151, 193, 29, 7, 4, 1, 165, 252, 0, 0, 0, 0, 0, 0, 0, 0, 0, 0, 0, 0
117, 16, 163, 127, 111, 127, 135, 127, 136, 127, 244, 128, 16, 128, 195, 127, 112, 127, 50, 126, 108, 127, 70, 127, 32, 127, 30, 127, 179, 127
118, 16, 191, 127, 139, 127, 125, 127, 185, 127, 120, 128, 239, 127, 192, 127, 115, 127, 255, 125, 28, 127, 28, 127, 253, 126, 37, 127, 99, 127
59, 32, 96, 0, 43, 0, 46, 0, 92, 2, 7, 194, 15, 7, 252, 0, 152, 252, 0, 0, 0, 0, 0, 0, 0, 0, 0, 0, 0, 0
119, 16, 199, 127, 149, 127, 140, 127, 178, 127, 168, 128, 255, 127, 195, 127, 122, 127, 1, 126, 36, 127, 11, 127, 0, 127, 17, 127, 141, 127
120, 16, 183, 127, 155, 127, 169, 127, 168, 127, 9, 129, 22, 128, 238, 127, 132, 127, 70, 126, 64, 127, 19, 127, 0, 127, 244, 126, 180, 127
60, 32, 117, 0, 253, 255, 26, 0, 98, 2, 232, 193, 26, 7, 1, 1, 145, 252, 0, 0, 0, 0, 0, 0, 0, 0, 0, 0, 0, 0
121, 16, 148, 127, 124, 127, 137, 127, 218, 127, 213, 128, 1, 128, 215, 127, 114, 127, 101, 126, 71, 127, 250, 126, 217, 126, 254, 126, 167, 127
122, 16, 140, 127, 140, 127, 77, 127, 171, 127, 52, 128, 229, 127, 168, 127, 98, 127, 46, 126, 60, 127, 247, 126, 182, 126, 10, 127, 154, 127
61, 32, 108, 0, 5, 0, 38, 0, 255, 1, 184, 193, 204, 6, 246, 0, 136, 252, 0, 0, 0, 0, 0, 0, 0, 0, 0, 0, 0, 0
123, 16, 157, 127, 191, 127, 98, 127, 147, 127, 125, 128, 10, 128, 200, 127, 135, 127, 2, 126, 34, 127, 255, 126, 184, 126, 224, 126, 163, 127
124, 16, 109, 127, 144, 127, 111, 127, 155, 127, 105, 129, 55, 128, 209, 127, 124, 127, 29, 126, 255, 126, 182, 126, 159, 126, 182, 126, 141, 127
62, 32, 150, 0, 230, 255, 40, 0, 239, 1, 146, 193, 8, 7, 255, 0, 140, 252, 0, 0, 0, 0, 0, 0, 0, 0, 0, 0, 0, 0
125, 16, 8, 127, 112, 127, 57, 127, 91, 127, 55, 129, 36, 128, 208, 127, 73, 127, 47, 126, 237, 126, 150, 126, 115, 126, 213, 126, 81, 127
126, 16, 27, 127, 131, 127, 62, 127, 105, 127, 165, 128, 2, 128, 195, 127, 94, 127, 58, 126, 59, 127, 17, 127, 137, 126, 7, 127, 99, 127
63, 32, 138, 0, 232, 255, 33, 0, 3, 2, 114, 193, 27, 7, 6, 1, 132, 252, 0, 0, 0, 0, 0, 0, 0, 0, 0, 0, 0, 0
127, 16, 166, 127, 161, 127, 145, 127, 188, 127, 235, 128, 5, 128, 187, 127, 135, 127, 114, 126, 160, 127, 108, 127, 180, 126, 29, 127, 159, 127
0, 16, 192, 127, 184, 127, 164, 127, 178, 127, 227, 128, 0, 128, 221, 127, 120, 127, 102, 126, 122, 127, 8, 127, 164, 126, 0, 127, 130, 127
0, 32, 129, 0, 245, 255, 35, 0, 20, 2, 126, 193, 8, 7, 6, 1, 137, 252, 0, 0, 0, 0, 0, 0, 0, 0, 0, 0, 0, 0
1, 16, 96, 127, 134, 127, 73, 127, 109, 127, 18, 128, 213, 127, 192, 127, 107, 127, 12, 126, 216, 126, 127, 126, 130, 126, 203, 126, 71, 127
2, 16, 84, 127, 98, 127, 54, 127, 96, 127, 97, 128, 200, 127, 192, 127, 123, 127, 31, 126, 205, 126, 172, 126, 134, 126, 220, 126, 82, 127
1, 32, 140, 0, 18, 0, 30, 0, 238, 1, 28, 193, 47, 7, 2, 1, 148, 252, 0, 0, 0, 0, 0, 0, 0, 0, 0, 0, 0, 0
3, 16, 126, 127, 128, 127, 141, 127, 153, 127, 140, 129, 5, 128, 255, 127, 125, 127, 128, 126, 92, 127, 38, 127, 149, 126, 242, 126, 121, 127
4, 16, 104, 127, 144, 127, 168, 127, 159, 127, 81, 129, 37, 128, 235, 127, 128, 127, 100, 126, 92, 127, 32, 127, 135, 126, 189, 126, 114, 127
2, 32, 121, 0, 30, 0, 55, 0, 66, 2, 186, 193, 51, 7, 252, 0, 142, 252, 0, 0, 0, 0, 0, 0, 0, 0, 0, 0, 0, 0
5, 16, 95, 127, 144, 127, 114, 127, 162, 127, 140, 128, 2, 128, 181, 127, 131, 127, 76, 126, 45, 127, 237, 126, 133, 126, 213, 126, 119, 127
6, 16, 131, 127, 124, 127, 96, 127, 192, 127, 180, 128, 3, 128, 205, 127, 127, 127, 179, 126, 115, 127, 11, 127, 168, 126, 53, 127, 158, 127
3, 32, 74, 0, 14, 0, 34, 0, 43, 2, 83, 194, 221, 6, 1, 1, 135, 252, 0, 0, 0, 0, 0, 0, 0, 0, 0, 0, 0, 0
7, 16, 182, 127, 114, 127, 150, 127, 99, 127, 235, 128, 38, 128, 231, 127, 130, 127, 169, 126, 145, 127, 23, 127, 169, 126, 29, 127, 166, 127
8, 16, 195, 127, 132, 127, 177, 127, 87, 127, 223, 128, 44, 128, 190, 127, 127, 127, 90, 126, 68, 127, 34, 127, 155, 126, 240, 126, 165, 127
4, 32, 111, 0, 6, 0, 36, 0, 252, 1, 168, 193, 69, 7, 1, 1, 66, 252, 0, 0, 0, 0, 0, 0, 0, 0, 0, 0, 0, 0
9, 16, 150, 127, 184, 127, 149, 127, 4, 128, 71, 129, 26, 128, 191, 127, 125, 127, 107, 126, 25, 127, 37, 127, 217, 126, 244, 126, 173, 127
10, 16, 132, 127, 173, 127, 124, 127, 217, 127, 65, 129, 236, 127, 210, 127, 120, 127, 82, 126, 248, 126, 225, 126, 250, 126, 199, 126, 129, 127
5, 32, 126, 0, 9, 0, 36, 0, 130, 2, 129, 193, 220, 6, 254, 0, 136, 252, 0, 0, 0, 0, 0, 0, 0, 0, 0, 0, 0, 0
11, 16, 227, 127, 68, 127, 163, 127, 109, 127, 191, 128, 226, 127, 182, 127, 115, 127, 61, 126, 9, 127, 27, 127, 247, 126, 237, 126, 158, 127
12, 16, 45, 128, 118, 127, 2, 128, 204, 127, 210, 128, 3, 128, 188, 127, 124, 127, 137, 126, 110, 127, 136, 127, 69, 127, 67, 127, 1, 128
6, 32, 139, 0, 8, 0, 59, 0, 157, 2, 196, 193, 64, 7, 252, 0, 149, 252, 0, 0, 0, 0, 0, 0, 0, 0, 0, 0, 0, 0
13, 16, 222, 127, 221, 127, 253, 127, 185, 127, 27, 129, 9, 128, 204, 127, 127, 127, 159, 126, 137, 127, 66, 127, 129, 127, 14, 127, 236, 127
14, 16, 144, 127, 184, 127, 118, 127, 147, 127, 17, 129, 17, 128, 194, 127, 122, 127, 74, 126, 24, 127, 251, 126, 76, 127, 188, 126, 162, 127
7, 32, 152, 0, 236, 255, 55, 0, 252, 2, 140, 193, 225, 6, 6, 1, 130, 252, 0, 0, 0, 0, 0, 0, 0, 0, 0, 0, 0, 0
15, 16, 124, 127, 120, 127, 51, 127, 232, 127, 204, 128, 234, 127, 166, 127, 122, 127, 209, 125, 110, 126, 221, 126, 222, 126, 174, 126, 88, 127
16, 16, 134, 127, 113, 127, 91, 127, 196, 127, 181, 128, 173, 127, 139, 127, 124, 127, 207, 125, 117, 126, 137, 126, 199, 126, 167, 126, 38, 127
8, 32, 176, 0, 160, 255, 254, 255, 20, 3, 90, 193, 252, 6, 255, 0, 146, 252, 0, 0, 0, 0, 0, 0, 0, 0, 0, 0, 0, 0
17, 16, 119, 127, 173, 127, 155, 127, 187, 127, 29, 129, 190, 127, 185, 127, 129, 127, 57, 126, 244, 126, 114, 126, 227, 126, 127, 126, 64, 127
18, 16, 21, 127, 197, 127, 198, 127, 96, 128, 144, 129, 205, 127, 186, 127, 125, 127, 76, 126, 233, 126, 133, 126, 202, 126, 59, 126, 68, 127
9, 32, 191, 0, 99, 255, 231, 255, 35, 3, 23, 193, 246, 6, 2, 1, 117, 252, 0, 0, 0, 0, 0, 0, 0, 0, 0, 0, 0, 0
19, 16, 244, 126, 134, 127, 176, 127, 191, 128, 60, 129, 117, 127, 115, 127, 103, 127, 237, 125, 124, 126, 45, 126, 145, 126, 248, 125, 242, 126
20, 16, 95, 127, 124, 127, 186, 127, 199, 128, 134, 128, 94, 127, 157, 127, 113, 127, 0, 126, 128, 126, 221, 125, 139, 126, 0, 126, 231, 126
10, 32, 114, 0, 234, 254, 12, 0, 197, 3, 64, 193, 117, 6, 246, 0, 144, 252, 0, 0, 0, 0, 0, 0, 0, 0, 0, 0, 0, 0
21, 16, 161, 127, 183, 127, 229, 127, 13, 129, 171, 128, 216, 127, 224, 127, 107, 127, 62, 126, 186, 126, 212, 125, 168, 126, 12, 126, 40, 127
22, 16, 148, 127, 216, 127, 243, 127, 66, 129, 63, 129, 248, 127, 196, 127, 81, 127, 221, 125, 54, 126, 93, 125, 124, 126, 233, 125, 242, 126
11, 32, 94, 0, 116, 254, 40, 0, 59, 6, 83, 195, 49, 6, 1, 1, 127, 252, 0, 0, 0, 0, 0, 0, 0, 0, 0, 0, 0, 0
23, 16, 117, 127, 186, 127, 241, 127, 119, 129, 67, 129, 165, 127, 146, 127, 95, 127, 120, 125, 144, 125, 200, 124, 41, 126, 138, 125, 129, 126
24, 16, 56, 127, 139, 127, 212, 127, 142, 129, 232, 128, 157, 127, 141, 127, 122, 127, 138, 125, 181, 125, 201, 124, 248, 125, 187, 124, 117, 126
12, 32, 14, 1, 120, 252, 12, 0, 73, 6, 78, 195, 198, 5, 1, 1, 140, 252, 0, 0, 0, 0, 0, 0, 0, 0, 0, 0, 0, 0
25, 16, 50, 127, 172, 127, 184, 127, 65, 129, 172, 128, 176, 127, 181, 127, 135, 127, 184, 125, 11, 126, 14, 125, 0, 126, 25, 124, 158, 126
26, 16, 130, 127, 222, 127, 188, 127, 106, 129, 156, 128, 171, 127, 173, 127, 96, 127, 225, 125, 12, 126, 3, 125, 66, 126, 82, 124, 190, 126
13, 32, 90, 1, 136, 251, 226, 255, 37, 6, 33, 195, 64, 6, 15, 1, 135, 252, 0, 0, 0, 0, 0, 0, 0, 0, 0, 0, 0, 0
27, 16, 156, 127, 223, 127, 228, 127, 253, 129, 130, 128, 157, 127, 149, 127, 61, 127, 202, 125, 254, 125, 178, 124, 68, 126, 128, 124, 211, 126
28, 16, 100, 127, 188, 127, 225, 127, 67, 130, 111, 128, 144, 127, 184, 127, 104, 127, 165, 125, 231, 125, 145, 124, 4, 126, 45, 124, 249, 126
14, 32, 255, 1, 206, 249, 211, 255, 74, 6, 94, 194, 90, 6, 16, 1, 138, 252, 0, 0, 0, 0, 0, 0, 0, 0, 0, 0, 0, 0
29, 16, 101, 127, 176, 127, 222, 127, 1, 130, 131, 128, 126, 127, 212, 127, 127, 127, 249, 125, 194, 125, 159, 124, 41, 126, 40, 124, 20, 127
30, 16, 189, 127, 221, 127, 32, 128, 167, 129, 111, 128, 137, 127, 205, 127, 98, 127, 21, 126, 193, 125, 176, 124, 132, 126, 116, 124, 26, 127
15, 32, 42, 2, 251, 248, 226, 255, 206, 5, 112, 193, 235, 6, 23, 1, 154, 252, 0, 0, 0, 0, 0, 0, 0, 0, 0, 0, 0, 0
31, 16, 179, 127, 200, 127, 4, 128, 7, 130, 16, 128, 152, 127, 137, 127, 72, 127, 118, 125, 151, 125, 164, 124, 81, 126, 81, 124, 255, 126
32, 16, 141, 127, 165, 127, 190, 127, 137, 130, 12, 128, 151, 127, 80, 127, 87, 127, 69, 125, 97, 125, 160, 124, 51, 126, 26, 124, 250, 126
16, 32, 64, 2, 164, 247, 255, 255, 220, 3, 77, 194, 16, 8, 39, 1, 147, 252, 0, 0, 0, 0, 0, 0, 0, 0, 0, 0, 0, 0
33, 16, 179, 127, 185, 127, 239, 127, 98, 130, 91, 128, 202, 127, 146, 127, 108, 127, 187, 125, 138, 125, 172, 124, 129, 126, 64, 124, 239, 126
34, 16, 153, 127, 200, 127, 2, 128, 135, 130, 165, 128, 20, 128, 190, 127, 86, 127, 25, 126, 188, 125, 164, 124, 111, 126, 100, 124, 186, 126
17, 32, 112, 2, 106, 247, 14, 0, 163, 2, 234, 193, 219, 7, 37, 1, 167, 252, 0, 0, 0, 0, 0, 0, 0, 0, 0, 0, 0, 0
35, 16, 83, 127, 201, 127, 219, 127, 203, 130, 143, 128, 221, 127, 158, 127, 61, 127, 8, 126, 183, 125, 142, 124, 21, 126, 57, 124, 161, 126
36, 16, 125, 127, 166, 127, 217, 127, 24, 130, 183, 127, 127, 127, 163, 127, 85, 127, 198, 125, 180, 125, 126, 124, 21, 126, 30, 124, 163, 126
18, 32, 139, 2, 62, 247, 57, 0, 44, 2, 235, 193, 63, 8, 52, 1, 142, 252, 0, 0, 0, 0, 0, 0, 0, 0, 0, 0, 0, 0
37, 16, 142, 127, 165, 127, 130, 127, 186, 129, 74, 127, 111, 127, 170, 127, 129, 127, 183, 125, 174, 125, 118, 124, 41, 126, 86, 124, 152, 126
38, 16, 77, 127, 220, 127, 59, 127, 170, 130, 64, 128, 153, 127, 140, 127, 122, 127, 6, 126, 193, 125, 176, 124, 101, 126, 173, 124, 230, 126
19, 32, 127, 2, 109, 247, 37, 0, 124, 1, 155, 193, 72, 8, 57, 1, 158, 252, 0, 0, 0, 0, 0, 0, 0, 0, 0, 0, 0, 0
39, 16, 126, 127, 199, 127, 222, 127, 129, 130, 169, 128, 217, 127, 140, 127, 85, 127, 252, 125, 250, 125, 252, 124, 195, 126, 200, 124, 57, 127
40, 16, 169, 127, 158, 127, 57, 128, 25, 129, 157, 127, 196, 127, 164, 127, 76, 127, 44, 125, 152, 125, 146, 124, 108, 126, 120, 124, 191, 126
20, 32, 95, 2, 30, 248, 42, 0, 118, 1, 116, 193, 6, 8, 54, 1, 147, 252, 0, 0, 0, 0, 0, 0, 0, 0, 0, 0, 0, 0
41, 16, 48, 127, 147, 127, 83, 127, 139, 129, 138, 127, 151, 127, 131, 127, 102, 127, 8, 125, 46, 125, 43, 124, 234, 125, 33, 124, 67, 126
42, 16, 241, 126, 168, 127, 232, 126, 184, 130, 84, 128, 231, 127, 135, 127, 134, 127, 209, 125, 165, 125, 141, 124, 253, 125, 32, 124, 127, 126
21, 32, 87, 2, 101, 248, 36, 0, 54, 1, 225, 193, 11, 9, 78, 1, 160, 252, 0, 0, 0, 0, 0, 0, 0, 0, 0, 0, 0, 0
43, 16, 76, 127, 213, 127, 151, 127, 45, 130, 111, 128, 20, 128, 189, 127, 108, 127, 25, 126, 50, 126, 230, 124, 77, 126, 110, 124, 172, 126
44, 16, 146, 127, 151, 127, 154, 127, 144, 129, 221, 127, 158, 127, 169, 127, 96, 127, 227, 125, 36, 126, 230, 124, 98, 126, 193, 124, 130, 126
22, 32, 57, 2, 68, 249, 229, 255, 229, 0, 146, 193, 182, 8, 73, 1, 158, 252, 0, 0, 0, 0, 0, 0, 0, 0, 0, 0, 0, 0
45, 16, 108, 127, 112, 127, 35, 127, 148, 129, 111, 127, 145, 127, 172, 127, 130, 127, 238, 125, 4, 126, 223, 124, 66, 126, 201, 124, 115, 126
46, 16, 3, 127, 156, 127, 66, 127, 67, 129, 174, 127, 15, 128, 213, 127, 121, 127, 31, 126, 43, 126, 2, 125, 19, 126, 157, 124, 125, 126
23, 32, 37, 2, 194, 249, 198, 255, 227, 0, 45, 193, 90, 8, 75, 1, 160, 252, 0, 0, 0, 0, 0, 0, 0, 0, 0, 0, 0, 0
47, 16, 209, 126, 155, 127, 47, 127, 38, 129, 195, 127, 35, 128, 233, 127, 109, 127, 28, 126, 94, 126, 21, 125, 13, 126, 171, 124, 111, 126
48, 16, 49, 127, 156, 127, 226, 126, 135, 129, 147, 127, 43, 128, 250, 127, 125, 127, 41, 126, 123, 126, 48, 125, 106, 126, 8, 125, 131, 126
24, 32, 185, 1, 222, 250, 168, 255, 52, 1, 230, 192, 48, 8, 60, 1, 167, 252, 0, 0, 0, 0, 0, 0, 0, 0, 0, 0, 0, 0
49, 16, 138, 127, 164, 127, 59, 127, 146, 129, 227, 127, 141, 128, 212, 127, 117, 127, 14, 126, 100, 126, 101, 125, 164, 126, 53, 125, 158, 126
50, 16, 139, 127, 168, 127, 142, 127, 165, 129, 95, 128, 180, 128, 196, 127, 100, 127, 174, 125, 55, 126, 162, 125, 193, 126, 64, 125, 194, 126
25, 32, 136, 1, 97, 251, 171, 255, 83, 1, 189, 192, 18, 8, 73, 1, 172, 252, 0, 0, 0, 0, 0, 0, 0, 0, 0, 0, 0, 0
51, 16, 129, 127, 184, 127, 72, 127, 222, 129, 90, 128, 167, 128, 210, 127, 107, 127, 124, 125, 35, 126, 159, 125, 243, 126, 61, 125, 230, 126
52, 16, 124, 127, 176, 127, 88, 127, 220, 129, 65, 128, 200, 128, 199, 127, 120, 127, 176, 125, 56, 126, 133, 125, 27, 127, 85, 125, 244, 126
26, 32, 33, 1, 62, 252, 225, 255, 84, 1, 12, 193, 213, 7, 82, 1, 172, 252, 0, 0, 0, 0, 0, 0, 0, 0, 0, 0, 0, 0
53, 16, 67, 127, 148, 127, 82, 127, 140, 129, 9, 128, 200, 128, 208, 127, 116, 127, 3, 126, 102, 126, 196, 125, 3, 127, 140, 125, 251, 126
54, 16, 250, 126, 120, 127, 203, 126, 27, 129, 122, 127, 175, 128, 215, 127, 119, 127, 39, 126, 156, 126, 193, 125, 193, 126, 99, 125, 246, 126
27, 32, 250, 0, 164, 252, 227, 255, 188, 1, 87, 193, 240, 7, 94, 1, 160, 252, 0, 0, 0, 0, 0, 0, 0, 0, 0, 0, 0, 0
55, 16, 3, 127, 134, 127, 235, 126, 33, 129, 183, 127, 230, 128, 232, 127, 133, 127, 102, 126, 194, 126, 142, 125, 229, 126, 69, 125, 13, 127
56, 16, 5, 127, 142, 127, 39, 127, 29, 129, 0, 128, 223, 128, 240, 127, 128, 127, 138, 126, 176, 126, 167, 125, 238, 126, 118, 125, 245, 126
28, 32, 191, 0, 76, 253, 224, 255, 240, 1, 248, 193, 23, 8, 90, 1, 148, 252, 0, 0, 0, 0, 0, 0, 0, 0, 0, 0, 0, 0
57, 16, 240, 126, 135, 127, 196, 126, 165, 128, 152, 127, 190, 128, 207, 127, 116, 127, 106, 126, 142, 126, 174, 125, 194, 126, 128, 125, 184, 126
58, 16, 255, 126, 172, 127, 218, 126, 199, 128, 144, 127, 65, 129, 206, 127, 113, 127, 120, 126, 133, 126, 180, 125, 235, 126, 146, 125, 227, 126
29, 32, 190, 0, 153, 253, 195, 255, 236, 1, 11, 194, 216, 7, 95, 1, 169, 252, 0, 0, 0, 0, 0, 0, 0, 0, 0, 0, 0, 0
59, 16, 31, 127, 165, 127, 9, 127, 108, 129, 174, 127, 199, 129, 212, 127, 106, 127, 162, 126, 195, 126, 217, 125, 0, 127, 225, 125, 10, 127
60, 16, 39, 127, 132, 127, 160, 126, 8, 129, 114, 127, 177, 129, 195, 127, 107, 127, 147, 126, 217, 126, 181, 125, 161, 126, 228, 125, 165, 126
30, 32, 179, 0, 83, 254, 196, 255, 72, 2, 233, 193, 182, 7, 75, 1, 156, 252, 0, 0, 0, 0, 0, 0, 0, 0, 0, 0, 0, 0
61, 16, 19, 127, 140, 127, 138, 126, 108, 128, 181, 127, 198, 129, 181, 127, 117, 127, 150, 126, 178, 126, 147, 125, 170, 126, 222, 125, 141, 126
62, 16, 22, 127, 168, 127, 25, 127, 43, 129, 24, 128, 21, 130, 188, 127, 125, 127, 174, 126, 204, 126, 14, 126, 38, 127, 59, 126, 27, 127
31, 32, 178, 0, 163, 254, 220, 255, 54, 3, 160, 193, 186, 7, 84, 1, 173, 252, 0, 0, 0, 0, 0, 0, 0, 0, 0, 0, 0, 0
63, 16, 80, 127, 212, 127, 78, 127, 200, 129, 255, 127, 252, 129, 215, 127, 129, 127, 89, 126, 235, 126, 80, 126, 35, 127, 73, 126, 64, 127
64, 16, 123, 127, 154, 127, 221, 126, 28, 129, 7, 128, 213, 129, 201, 127, 109, 127, 23, 126, 200, 126, 230, 125, 252, 126, 13, 126, 228, 126
32, 32, 156, 0, 14, 255, 206, 255, 104, 3, 187, 193, 125, 7, 81, 1, 171, 252, 0, 0, 0, 0, 0, 0, 0, 0, 0, 0, 0, 0
65, 16, 79, 127, 85, 127, 152, 126, 99, 128, 212, 127, 206, 129, 172, 127, 102, 127, 255, 125, 100, 126, 175, 125, 248, 126, 241, 125, 181, 126
66, 16, 253, 126, 143, 127, 235, 126, 233, 128, 83, 127, 156, 129, 194, 127, 134, 127, 5, 126, 127, 126, 237, 125, 3, 127, 16, 126, 217, 126
33, 32, 153, 0, 41, 255, 191, 255, 242, 2, 228, 193, 229, 7, 100, 1, 172, 252, 0, 0, 0, 0, 0, 0, 0, 0, 0, 0, 0, 0
67, 16, 15, 127, 181, 127, 44, 127, 118, 129, 153, 127, 121, 129, 219, 127, 110, 127, 99, 126, 245, 126, 32, 126, 82, 127, 106, 126, 58, 127
68, 16, 111, 127, 156, 127, 8, 127, 182, 128, 200, 127, 100, 129, 217, 127, 63, 127, 127, 126, 203, 126, 3, 126, 153, 127, 150, 126, 128, 127
34, 32, 151, 0, 153, 255, 244, 255, 235, 2, 212, 193, 111, 7, 82, 1, 172, 252, 0, 0, 0, 0, 0, 0, 0, 0, 0, 0, 0, 0
69, 16, 150, 127, 122, 127, 252, 126, 103, 128, 81, 127, 111, 129, 208, 127, 91, 127, 89, 126, 123, 126, 31, 126, 154, 127, 142, 126, 140, 127
70, 16, 141, 127, 112, 127, 35, 127, 20, 129, 195, 127, 171, 129, 219, 127, 135, 127, 112, 126, 197, 126, 133, 126, 151, 127, 155, 126, 135, 127
35, 32, 130, 0, 209, 255, 1, 0, 84, 3, 252, 193, 150, 7, 83, 1, 176, 252, 0, 0, 0, 0, 0, 0, 0, 0, 0, 0, 0, 0
71, 16, 148, 127, 142, 127, 6, 127, 35, 129, 47, 128, 190, 129, 225, 127, 124, 127, 149, 126, 42, 127, 108, 126, 167, 127, 141, 126, 130, 127
72, 16, 150, 127, 162, 127, 236, 126, 238, 128, 150, 127, 178, 129, 205, 127, 114, 127, 211, 126, 23, 127, 50, 126, 176, 127, 138, 126, 141, 127
36, 32, 124, 0, 243, 255, 8, 0, 139, 3, 216, 193, 109, 7, 81, 1, 183, 252, 0, 0, 0, 0, 0, 0, 0, 0, 0, 0, 0, 0
73, 16, 136, 127, 147, 127, 25, 127, 94, 129, 113, 127, 197, 129, 203, 127, 127, 127, 251, 126, 248, 126, 119, 126, 170, 127, 216, 126, 139, 127
74, 16, 112, 127, 92, 127, 20, 127, 112, 129, 12, 128, 209, 129, 206, 127, 128, 127, 196, 126, 8, 127, 167, 126, 162, 127, 25, 127, 147, 127
37, 32, 96, 0, 73, 0, 2, 0, 134, 3, 187, 193, 182, 7, 87, 1, 196, 252, 0, 0, 0, 0, 0, 0, 0, 0, 0, 0, 0, 0
75, 16, 62, 127, 83, 127, 180, 126, 255, 128, 64, 128, 146, 129, 192, 127, 123, 127, 156, 126, 234, 126, 66, 126, 147, 127, 210, 126, 150, 127
75, 16, 62, 127, 83, 127, 180, 126, 255, 128, 64, 128, 146, 129, 192, 127, 123, 127, 156, 126, 234, 126, 66, 126, 147, 127, 210, 126, 150, 127
76, 16, 45, 127, 80, 127, 126, 126, 132, 128, 175, 127, 42, 129, 190, 127, 109, 127, 195, 126, 155, 126, 249, 125, 100, 127, 111, 126, 68, 127
38, 32, 111, 0, 82, 0, 33, 0, 227, 3, 225, 193, 223, 7, 76, 1, 175, 252, 0, 0, 0, 0, 0, 0, 0, 0, 0, 0, 0, 0
77, 16, 115, 127, 11, 127, 214, 126, 103, 128, 83, 127, 40, 129, 209, 127, 116, 127, 249, 126, 169, 126, 92, 126, 119, 127, 187, 126, 46, 127
78, 16, 172, 127, 248, 126, 11, 127, 121, 129, 150, 127, 130, 129, 233, 127, 137, 127, 30, 127, 40, 127, 169, 126, 204, 127, 23, 127, 145, 127
39, 32, 73, 0, 103, 0, 68, 0, 41, 4, 28, 194, 130, 7, 85, 1, 183, 252, 0, 0, 0, 0, 0, 0, 0, 0, 0, 0, 0, 0
79, 16, 87, 127, 249, 126, 183, 126, 161, 129, 247, 127, 136, 129, 216, 127, 122, 127, 255, 126, 240, 126, 84, 126, 143, 127, 189, 126, 110, 127
80, 16, 22, 127, 254, 126, 183, 126, 66, 128, 195, 127, 61, 129, 198, 127, 108, 127, 204, 126, 105, 126, 251, 125, 60, 127, 129, 126, 18, 127
40, 32, 86, 0, 92, 0, 52, 0, 40, 4, 33, 194, 175, 7, 90, 1, 188, 252, 0, 0, 0, 0, 0, 0, 0, 0, 0, 0, 0, 0
81, 16, 95, 127, 38, 127, 16, 127, 159, 128, 49, 127, 20, 129, 218, 127, 115, 127, 251, 126, 174, 126, 12, 126, 127, 127, 172, 126, 76, 127
82, 16, 91, 127, 9, 127, 245, 126, 29, 130, 81, 127, 216, 128, 188, 127, 118, 127, 37, 127, 239, 126, 67, 126, 160, 127, 188, 126, 107, 127
41, 32, 97, 0, 63, 0, 3, 0, 159, 3, 3, 194, 213, 7, 95, 1, 160, 252, 0, 0, 0, 0, 0, 0, 0, 0, 0, 0, 0, 0
83, 16, 42, 127, 252, 126, 218, 126, 248, 129, 171, 127, 107, 128, 178, 127, 119, 127, 249, 126, 198, 126, 167, 126, 145, 127, 222, 126, 61, 127
84, 16, 113, 127, 20, 127, 15, 127, 133, 129, 220, 127, 88, 128, 232, 127, 122, 127, 17, 127, 243, 126, 4, 127, 234, 127, 37, 127, 128, 127
42, 32, 99, 0, 11, 0, 53, 0, 116, 2, 83, 195, 94, 9, 96, 1, 170, 252, 0, 0, 0, 0, 0, 0, 0, 0, 0, 0, 0, 0
85, 16, 142, 127, 33, 127, 12, 127, 0, 130, 255, 127, 113, 128, 254, 127, 130, 127, 98, 127, 34, 127, 213, 126, 21, 128, 32, 127, 173, 127
86, 16, 62, 127, 78, 127, 15, 127, 47, 130, 197, 127, 128, 128, 244, 127, 137, 127, 101, 127, 226, 126, 162, 126, 232, 127, 9, 127, 118, 127
43, 32, 212, 0, 242, 255, 127, 0, 229, 1, 169, 195, 174, 10, 96, 1, 183, 252, 0, 0, 0, 0, 0, 0, 0, 0, 0, 0, 0, 0
87, 16, 100, 127, 81, 127, 31, 127, 7, 130, 210, 127, 138, 128, 211, 127, 119, 127, 47, 127, 213, 126, 211, 126, 0, 128, 37, 127, 132, 127
88, 16, 145, 127, 48, 127, 209, 126, 238, 129, 217, 127, 35, 128, 197, 127, 107, 127, 27, 127, 1, 127, 190, 126, 0, 128, 37, 127, 139, 127
44, 32, 48, 1, 73, 0, 108, 0, 253, 1, 75, 195, 77, 11, 95, 1, 162, 252, 0, 0, 0, 0, 0, 0, 0, 0, 0, 0, 0, 0
89, 16, 34, 127, 14, 127, 194, 126, 236, 129, 129, 127, 238, 127, 204, 127, 115, 127, 40, 127, 14, 127, 144, 126, 225, 127, 13, 127, 99, 127
90, 16, 254, 126, 245, 126, 20, 127, 248, 129, 207, 127, 64, 128, 200, 127, 117, 127, 17, 127, 19, 127, 195, 126, 232, 127, 9, 127, 94, 127
45, 32, 144, 1, 40, 1, 80, 0, 146, 2, 197, 194, 233, 11, 82, 1, 183, 252, 0, 0, 0, 0, 0, 0, 0, 0, 0, 0, 0, 0
91, 16, 50, 127, 32, 127, 3, 127, 17, 130, 97, 128, 75, 128, 218, 127, 117, 127, 230, 126, 15, 127, 238, 126, 196, 127, 10, 127, 77, 127
92, 16, 254, 126, 33, 127, 201, 126, 27, 130, 202, 127, 244, 127, 194, 127, 126, 127, 200, 126, 4, 127, 220, 126, 116, 127, 204, 126, 16, 127
46, 32, 163, 1, 119, 1, 70, 0, 43, 3, 224, 194, 163, 11, 89, 1, 179, 252, 0, 0, 0, 0, 0, 0, 0, 0, 0, 0, 0, 0
93, 16, 235, 126, 254, 126, 249, 126, 170, 129, 87, 127, 212, 127, 159, 127, 145, 127, 208, 126, 237, 126, 219, 126, 104, 127, 158, 126, 240, 126
94, 16, 57, 127, 26, 127, 34, 127, 159, 129, 75, 128, 16, 128, 182, 127, 157, 127, 17, 127, 244, 126, 4, 127, 156, 127, 243, 126, 48, 127
47, 32, 85, 1, 2, 2, 2, 0, 103, 3, 6, 196, 127, 11, 85, 1, 120, 252, 0, 0, 0, 0, 0, 0, 0, 0, 0, 0, 0, 0
95, 16, 57, 127, 68, 127, 252, 126, 87, 130, 198, 128, 33, 128, 200, 127, 152, 127, 57, 127, 48, 127, 18, 127, 166, 127, 60, 127, 107, 127
96, 16, 38, 127, 49, 127, 23, 127, 154, 130, 49, 128, 0, 128, 213, 127, 142, 127, 21, 127, 112, 127, 29, 127, 157, 127, 27, 127, 120, 127
48, 32, 62, 1, 79, 2, 204, 255, 16, 3, 176, 195, 143, 11, 79, 1, 187, 252, 0, 0, 0, 0, 0, 0, 0, 0, 0, 0, 0, 0
97, 16, 90, 127, 17, 127, 56, 127, 66, 130, 102, 128, 51, 128, 199, 127, 136, 127, 20, 127, 155, 127, 98, 127, 184, 127, 11, 127, 132, 127
98, 16, 155, 127, 87, 127, 60, 127, 84, 130, 9, 129, 155, 128, 197, 127, 144, 127, 78, 127, 185, 127, 163, 127, 239, 127, 46, 127, 157, 127
49, 32, 210, 0, 104, 3, 10, 0, 187, 2, 206, 193, 10, 11, 78, 1, 172, 252, 0, 0, 0, 0, 0, 0, 0, 0, 0, 0, 0, 0
99, 16, 165, 127, 118, 127, 101, 127, 207, 130, 170, 128, 106, 128, 209, 127, 117, 127, 46, 127, 125, 127, 145, 127, 4, 128, 42, 127, 154, 127
100, 16, 108, 127, 245, 126, 88, 127, 255, 130, 18, 128, 16, 128, 186, 127, 50, 127, 8, 127, 44, 127, 123, 127, 248, 127, 14, 127, 135, 127
50, 32, 129, 0, 251, 3, 158, 0, 136, 2, 124, 191, 32, 10, 86, 1, 172, 252, 0, 0, 0, 0, 0, 0, 0, 0, 0, 0, 0, 0
101, 16, 95, 127, 196, 126, 64, 127, 214, 130, 147, 128, 86, 128, 196, 127, 76, 127, 74, 127, 97, 127, 180, 127, 25, 128, 44, 127, 160, 127
102, 16, 118, 127, 252, 126, 54, 127, 160, 130, 254, 128, 95, 128, 189, 127, 119, 127, 63, 127, 150, 127, 196, 127, 42, 128, 12, 127, 151, 127
51, 32, 155, 255, 12, 5, 112, 2, 122, 2, 191, 189, 181, 9, 84, 1, 191, 252, 0, 0, 0, 0, 0, 0, 0, 0, 0, 0, 0, 0
103, 16, 104, 127, 23, 127, 77, 127, 217, 130, 114, 128, 219, 127, 163, 127, 49, 127, 205, 126, 55, 127, 143, 127, 2, 128, 160, 126, 102, 127
104, 16, 89, 127, 19, 127, 140, 127, 87, 131, 105, 128, 221, 127, 199, 127, 245, 126, 233, 126, 251, 126, 140, 127, 1, 128, 173, 126, 103, 127
52, 32, 250, 254, 120, 5, 119, 3, 85, 2, 10, 187, 70, 7, 84, 1, 183, 252, 0, 0, 0, 0, 0, 0, 0, 0, 0, 0, 0, 0
105, 16, 152, 127, 250, 126, 160, 127, 91, 131, 62, 129, 78, 128, 242, 127, 14, 127, 76, 127, 55, 127, 134, 127, 42, 128, 17, 127, 156, 127
106, 16, 167, 127, 255, 126, 126, 127, 196, 130, 34, 129, 236, 127, 211, 127, 35, 127, 16, 127, 18, 127, 94, 127, 1, 128, 254, 126, 140, 127
53, 32, 44, 253, 26, 6, 241, 5, 222, 2, 103, 186, 32, 6, 88, 1, 167, 252, 0, 0, 0, 0, 0, 0, 0, 0, 0, 0, 0, 0
53, 32, 44, 253, 26, 6, 241, 5, 222, 2, 103, 186, 32, 6, 88, 1, 167, 252, 0, 0, 0, 0, 0, 0, 0, 0, 0, 0, 0, 0
107, 16, 79, 127, 253, 126, 81, 127, 101, 130, 98, 128, 91, 127, 148, 127, 33, 127, 224, 126, 235, 126, 158, 127, 218, 127, 219, 126, 104, 127
108, 16, 92, 127, 226, 126, 134, 127, 140, 130, 219, 128, 186, 127, 177, 127, 76, 127, 18, 127, 105, 127, 49, 128, 91, 128, 73, 127, 202, 127
54, 32, 33, 252, 32, 6, 1, 7, 84, 3, 112, 186, 104, 4, 96, 1, 166, 252, 0, 0, 0, 0, 0, 0, 0, 0, 0, 0, 0, 0
109, 16, 193, 127, 247, 126, 234, 127, 20, 130, 98, 129, 247, 127, 218, 127, 107, 127, 4, 127, 146, 127, 94, 128, 241, 128, 143, 127, 70, 128
110, 16, 219, 127, 6, 127, 7, 128, 128, 129, 196, 128, 166, 127, 209, 127, 116, 127, 246, 126, 83, 127, 151, 128, 247, 128, 160, 127, 135, 128
55, 32, 43, 250, 219, 5, 109, 8, 203, 1, 245, 187, 59, 3, 95, 1, 150, 252, 0, 0, 0, 0, 0, 0, 0, 0, 0, 0, 0, 0
111, 16, 220, 127, 12, 127, 7, 128, 108, 129, 101, 128, 146, 127, 214, 127, 132, 127, 17, 127, 88, 127, 210, 128, 227, 128, 191, 127, 130, 128
112, 16, 227, 127, 4, 127, 252, 127, 16, 129, 205, 128, 181, 127, 224, 127, 135, 127, 12, 127, 154, 127, 175, 128, 54, 129, 205, 127, 121, 128
56, 32, 141, 249, 212, 5, 254, 8, 201, 0, 139, 189, 244, 2, 111, 1, 124, 252, 0, 0, 0, 0, 0, 0, 0, 0, 0, 0, 0, 0
113, 16, 206, 127, 253, 126, 211, 127, 169, 128, 179, 128, 154, 127, 237, 127, 138, 127, 61, 127, 220, 127, 206, 128, 123, 129, 245, 127, 196, 128
114, 16, 205, 127, 15, 127, 205, 127, 197, 128, 34, 128, 120, 127, 243, 127, 133, 127, 97, 127, 217, 127, 20, 129, 104, 129, 18, 128, 252, 128
57, 32, 31, 249, 67, 6, 222, 9, 25, 254, 37, 194, 12, 2, 107, 1, 124, 252, 0, 0, 0, 0, 0, 0, 0, 0, 0, 0, 0, 0
115, 16, 235, 127, 250, 126, 215, 127, 207, 128, 76, 128, 134, 127, 208, 127, 119, 127, 66, 127, 193, 127, 51, 129, 118, 129, 39, 128, 6, 129
116, 16, 191, 127, 213, 126, 153, 127, 8, 128, 152, 128, 110, 127, 184, 127, 115, 127, 85, 127, 206, 127, 93, 129, 105, 129, 54, 128, 12, 129
58, 32, 122, 249, 183, 6, 43, 10, 59, 253, 172, 195, 235, 1, 121, 1, 131, 252, 0, 0, 0, 0, 0, 0, 0, 0, 0, 0, 0, 0
117, 16, 114, 127, 206, 126, 94, 127, 110, 127, 72, 128, 80, 127, 185, 127, 119, 127, 108, 127, 207, 127, 96, 129, 7, 129, 56, 128, 216, 128
118, 16, 131, 127, 233, 126, 98, 127, 172, 127, 244, 127, 83, 127, 188, 127, 117, 127, 79, 127, 164, 127, 102, 129, 210, 128, 54, 128, 176, 128
59, 32, 220, 250, 172, 7, 29, 10, 128, 251, 207, 198, 61, 2, 123, 1, 127, 252, 0, 0, 0, 0, 0, 0, 0, 0, 0, 0, 0, 0
119, 16, 156, 127, 6, 127, 104, 127, 223, 127, 55, 128, 101, 127, 222, 127, 119, 127, 90, 127, 208, 127, 202, 129, 1, 129, 97, 128, 232, 128
120, 16, 146, 127, 223, 126, 100, 127, 42, 127, 88, 128, 151, 127, 218, 127, 129, 127, 179, 127, 79, 128, 37, 130, 48, 129, 122, 128, 13, 129
60, 32, 237, 251, 82, 8, 245, 9, 202, 250, 19, 199, 215, 1, 127, 1, 121, 252, 0, 0, 0, 0, 0, 0, 0, 0, 0, 0, 0, 0
121, 16, 145, 127, 237, 126, 82, 127, 96, 126, 240, 127, 136, 127, 184, 127, 121, 127, 187, 127, 112, 128, 43, 130, 64, 129, 97, 128, 25, 129
122, 16, 125, 127, 6, 127, 7, 127, 103, 126, 223, 127, 42, 127, 179, 127, 116, 127, 156, 127, 95, 128, 60, 130, 86, 129, 141, 128, 111, 129
61, 32, 24, 254, 139, 9, 114, 9, 177, 250, 162, 197, 137, 1, 143, 1, 114, 252, 0, 0, 0, 0, 0, 0, 0, 0, 0, 0, 0, 0
123, 16, 105, 127, 231, 126, 228, 126, 70, 126, 255, 127, 33, 127, 176, 127, 127, 127, 195, 127, 120, 128, 73, 130, 96, 129, 152, 128, 136, 129
124, 16, 149, 127, 6, 127, 35, 127, 246, 125, 15, 128, 107, 127, 197, 127, 128, 127, 247, 127, 204, 128, 138, 130, 106, 129, 120, 128, 125, 129
62, 32, 23, 255, 226, 9, 61, 9, 201, 250, 202, 194, 166, 1, 149, 1, 105, 252, 0, 0, 0, 0, 0, 0, 0, 0, 0, 0, 0, 0
125, 16, 199, 127, 22, 127, 57, 127, 214, 125, 61, 128, 83, 127, 201, 127, 125, 127, 23, 128, 18, 129, 12, 131, 129, 129, 201, 128, 210, 129
126, 16, 163, 127, 0, 127, 249, 126, 156, 125, 230, 127, 13, 127, 184, 127, 131, 127, 2, 128, 194, 128, 252, 130, 95, 129, 4, 129, 225, 129
63, 32, 149, 0, 48, 10, 54, 9, 56, 251, 182, 193, 30, 2, 148, 1, 104, 252, 0, 0, 0, 0, 0, 0, 0, 0, 0, 0, 0, 0
127, 16, 109, 127, 246, 126, 240, 126, 168, 125, 146, 127, 35, 127, 183, 127, 124, 127, 252, 127, 142, 128, 164, 130, 33, 129, 175, 128, 137, 129
0, 16, 117, 127, 232, 126, 50, 127, 155, 125, 245, 127, 247, 126, 177, 127, 116, 127, 19, 128, 208, 128, 122, 130, 6, 129, 61, 128, 103, 129
0, 32, 21, 1, 11, 10, 57, 9, 77, 252, 152, 193, 146, 2, 154, 1, 93, 252, 0, 0, 0, 0, 0, 0, 0, 0, 0, 0, 0, 0
1, 16, 160, 127, 247, 126, 71, 127, 92, 125, 244, 127, 144, 126, 192, 127, 126, 127, 41, 128, 207, 128, 52, 130, 14, 129, 31, 128, 135, 129
2, 16, 120, 127, 6, 127, 4, 127, 203, 125, 133, 127, 88, 126, 182, 127, 123, 127, 14, 128, 82, 128, 236, 129, 220, 128, 240, 127, 106, 129
1, 32, 181, 1, 40, 9, 191, 8, 126, 252, 81, 194, 193, 2, 159, 1, 88, 252, 0, 0, 0, 0, 0, 0, 0, 0, 0, 0, 0, 0
3, 16, 37, 127, 5, 127, 218, 126, 36, 126, 172, 127, 36, 126, 175, 127, 124, 127, 230, 127, 26, 128, 207, 129, 130, 128, 153, 127, 251, 128
4, 16, 60, 127, 241, 126, 23, 127, 150, 125, 206, 127, 17, 126, 196, 127, 117, 127, 249, 127, 84, 128, 201, 129, 99, 128, 111, 127, 215, 128
2, 32, 252, 1, 141, 8, 23, 8, 174, 250, 183, 194, 63, 4, 147, 1, 82, 252, 0, 0, 0, 0, 0, 0, 0, 0, 0, 0, 0, 0
5, 16, 137, 127, 245, 126, 78, 127, 226, 125, 156, 127, 43, 126, 192, 127, 109, 127, 16, 128, 142, 128, 195, 129, 147, 128, 167, 127, 59, 129
6, 16, 141, 127, 54, 127, 101, 127, 253, 126, 165, 127, 36, 126, 190, 127, 199, 127, 63, 128, 146, 128, 174, 129, 189, 128, 6, 128, 120, 129
3, 32, 151, 2, 155, 7, 38, 7, 213, 249, 213, 193, 41, 4, 158, 1, 90, 252, 0, 0, 0, 0, 0, 0, 0, 0, 0, 0, 0, 0
7, 16, 110, 127, 46, 127, 74, 127, 254, 126, 167, 127, 45, 126, 193, 127, 1, 128, 110, 128, 106, 128, 165, 129, 142, 128, 251, 127, 22, 129
8, 16, 71, 127, 239, 126, 12, 127, 107, 126, 169, 127, 99, 126, 190, 127, 180, 127, 47, 128, 60, 128, 82, 129, 48, 128, 103, 127, 142, 128
4, 32, 197, 2, 19, 7, 215, 6, 126, 248, 62, 192, 224, 4, 156, 1, 87, 252, 0, 0, 0, 0, 0, 0, 0, 0, 0, 0, 0, 0
9, 16, 7, 127, 0, 127, 254, 126, 134, 126, 186, 127, 118, 126, 191, 127, 141, 127, 228, 127, 20, 128, 194, 128, 247, 127, 249, 126, 108, 128
10, 16, 247, 126, 14, 127, 31, 127, 219, 126, 83, 127, 142, 126, 186, 127, 175, 127, 25, 128, 228, 127, 182, 128, 220, 127, 31, 127, 141, 128
5, 32, 147, 2, 194, 5, 169, 6, 32, 247, 194, 191, 71, 5, 166, 1, 93, 252, 0, 0, 0, 0, 0, 0, 0, 0, 0, 0, 0, 0
11, 16, 19, 127, 12, 127, 94, 127, 10, 127, 12, 127, 143, 126, 193, 127, 148, 127, 35, 128, 232, 127, 23, 129, 205, 127, 51, 127, 144, 128
12, 16, 245, 126, 7, 127, 105, 127, 24, 127, 79, 127, 82, 126, 177, 127, 90, 127, 241, 127, 18, 128, 20, 129, 197, 127, 254, 126, 108, 128
6, 32, 115, 2, 41, 5, 140, 6, 58, 246, 9, 192, 144, 5, 174, 1, 106, 252, 0, 0, 0, 0, 0, 0, 0, 0, 0, 0, 0, 0
13, 16, 26, 127, 10, 127, 90, 127, 178, 126, 117, 127, 74, 126, 171, 127, 101, 127, 39, 128, 234, 127, 6, 129, 234, 127, 38, 127, 148, 128
14, 16, 218, 127, 42, 127, 196, 127, 118, 126, 219, 127, 175, 126, 226, 127, 137, 127, 135, 128, 224, 127, 126, 129, 103, 128, 178, 127, 49, 129
7, 32, 8, 2, 246, 3, 8, 6, 186, 244, 240, 193, 7, 7, 173, 1, 99, 252, 0, 0, 0, 0, 0, 0, 0, 0, 0, 0, 0, 0
15, 16, 15, 128, 50, 127, 242, 127, 31, 127, 34, 128, 210, 126, 237, 127, 133, 127, 168, 128, 70, 128, 178, 129, 154, 128, 188, 127, 108, 129
16, 16, 109, 127, 60, 127, 72, 127, 198, 127, 50, 127, 78, 126, 193, 127, 99, 127, 65, 128, 47, 128, 36, 129, 252, 127, 33, 127, 194, 128
8, 32, 255, 1, 120, 3, 159, 5, 202, 243, 81, 194, 142, 7, 189, 1, 100, 252, 0, 0, 0, 0, 0, 0, 0, 0, 0, 0, 0, 0
17, 16, 113, 127, 54, 127, 59, 127, 160, 127, 225, 126, 53, 126, 176, 127, 94, 127, 250, 127, 210, 127, 202, 128, 188, 127, 12, 127, 147, 128
18, 16, 32, 128, 31, 127, 28, 128, 255, 126, 169, 127, 146, 126, 192, 127, 141, 127, 86, 128, 44, 128, 42, 129, 81, 128, 131, 127, 46, 129
9, 32, 86, 2, 230, 2, 152, 4, 108, 242, 191, 193, 169, 7, 185, 1, 153, 252, 0, 0, 0, 0, 0, 0, 0, 0, 0, 0, 0, 0
19, 16, 47, 128, 51, 127, 246, 127, 255, 126, 128, 127, 149, 126, 215, 127, 143, 127, 162, 128, 139, 128, 133, 129, 102, 128, 153, 127, 62, 129
20, 16, 221, 127, 58, 127, 61, 127, 223, 127, 55, 127, 122, 126, 191, 127, 124, 127, 118, 128, 63, 128, 131, 129, 38, 128, 131, 127, 18, 129
10, 32, 83, 2, 144, 2, 4, 4, 38, 242, 205, 193, 215, 8, 198, 1, 112, 252, 0, 0, 0, 0, 0, 0, 0, 0, 0, 0, 0, 0
21, 16, 235, 127, 91, 127, 135, 127, 34, 128, 124, 127, 147, 126, 163, 127, 132, 127, 81, 128, 212, 127, 90, 129, 78, 128, 125, 127, 108, 129
22, 16, 191, 127, 98, 127, 180, 127, 154, 127, 16, 127, 156, 126, 153, 127, 128, 127, 107, 128, 191, 127, 32, 129, 39, 128, 41, 127, 92, 129
22, 16, 191, 127, 98, 127, 180, 127, 154, 127, 16, 127, 156, 126, 153, 127, 128, 127, 107, 128, 191, 127, 32, 129, 39, 128, 41, 127, 92, 129
11, 32, 77, 2, 19, 2, 200, 2, 197, 241, 122, 193, 238, 8, 199, 1, 78, 252, 0, 0, 0, 0, 0, 0, 0, 0, 0, 0, 0, 0
23, 16, 132, 127, 44, 127, 65, 127, 91, 127, 177, 126, 131, 126, 157, 127, 121, 127, 115, 128, 206, 127, 233, 128, 189, 127, 230, 126, 219, 128
24, 16, 216, 127, 89, 127, 108, 127, 60, 127, 252, 126, 125, 126, 173, 127, 123, 127, 122, 128, 180, 127, 243, 128, 234, 127, 4, 127, 0, 129
12, 32, 58, 2, 253, 1, 29, 2, 181, 241, 131, 193, 112, 9, 194, 1, 111, 252, 0, 0, 0, 0, 0, 0, 0, 0, 0, 0, 0, 0
25, 16, 6, 128, 144, 127, 215, 127, 52, 127, 193, 126, 136, 126, 158, 127, 122, 127, 142, 128, 173, 127, 70, 129, 76, 128, 35, 127, 108, 129
26, 16, 216, 127, 123, 127, 168, 127, 91, 127, 183, 126, 170, 126, 176, 127, 131, 127, 133, 128, 187, 127, 91, 129, 80, 128, 69, 127, 106, 129
13, 32, 0, 2, 184, 1, 195, 0, 30, 242, 161, 193, 117, 9, 190, 1, 116, 252, 0, 0, 0, 0, 0, 0, 0, 0, 0, 0, 0, 0
27, 16, 229, 127, 93, 127, 109, 127, 52, 127, 100, 127, 176, 126, 192, 127, 135, 127, 116, 128, 199, 127, 90, 129, 94, 128, 128, 127, 95, 129
28, 16, 42, 128, 89, 127, 140, 127, 70, 127, 14, 127, 161, 126, 171, 127, 136, 127, 146, 128, 11, 128, 151, 129, 124, 128, 146, 127, 136, 129
14, 32, 220, 1, 158, 1, 3, 0, 62, 242, 232, 192, 132, 9, 196, 1, 102, 252, 0, 0, 0, 0, 0, 0, 0, 0, 0, 0, 0, 0
29, 16, 42, 128, 111, 127, 158, 127, 137, 127, 86, 126, 161, 126, 187, 127, 141, 127, 122, 128, 226, 127, 43, 129, 67, 128, 96, 127, 137, 129
30, 16, 251, 127, 116, 127, 131, 127, 28, 127, 160, 126, 174, 126, 193, 127, 131, 127, 27, 128, 48, 127, 93, 128, 231, 127, 9, 127, 80, 129
15, 32, 122, 1, 111, 1, 43, 255, 72, 242, 73, 192, 177, 9, 190, 1, 109, 252, 0, 0, 0, 0, 0, 0, 0, 0, 0, 0, 0, 0
31, 16, 251, 127, 134, 127, 89, 127, 206, 126, 185, 126, 209, 126, 204, 127, 121, 127, 43, 128, 60, 127, 187, 128, 239, 127, 231, 126, 89, 129
32, 16, 251, 127, 80, 127, 72, 127, 57, 127, 122, 126, 254, 126, 224, 127, 131, 127, 136, 128, 21, 128, 168, 129, 35, 128, 76, 127, 113, 129
16, 32, 37, 1, 67, 1, 12, 255, 52, 243, 239, 191, 30, 9, 195, 1, 109, 252, 0, 0, 0, 0, 0, 0, 0, 0, 0, 0, 0, 0
33, 16, 214, 127, 37, 127, 72, 127, 54, 127, 239, 126, 91, 127, 185, 127, 140, 127, 149, 128, 59, 128, 159, 129, 4, 128, 169, 127, 63, 129
34, 16, 172, 127, 121, 127, 68, 127, 213, 126, 27, 127, 113, 127, 122, 127, 131, 127, 108, 128, 231, 127, 73, 129, 206, 127, 146, 127, 28, 129
17, 32, 203, 0, 226, 0, 254, 254, 191, 243, 146, 193, 129, 9, 190, 1, 101, 252, 0, 0, 0, 0, 0, 0, 0, 0, 0, 0, 0, 0
35, 16, 187, 127, 142, 127, 78, 127, 0, 127, 197, 126, 39, 127, 98, 127, 121, 127, 144, 128, 251, 127, 98, 129, 231, 127, 162, 127, 79, 129
36, 16, 255, 127, 109, 127, 152, 127, 35, 127, 211, 126, 59, 127, 147, 127, 127, 127, 201, 128, 34, 128, 97, 129, 34, 128, 217, 127, 129, 129
18, 32, 91, 0, 50, 0, 190, 254, 35, 244, 213, 193, 218, 8, 197, 1, 106, 252, 0, 0, 0, 0, 0, 0, 0, 0, 0, 0, 0, 0
37, 16, 3, 128, 103, 127, 167, 127, 214, 126, 244, 126, 125, 127, 176, 127, 129, 127, 200, 128, 4, 128, 22, 129, 0, 128, 180, 127, 86, 129
38, 16, 167, 127, 90, 127, 12, 127, 145, 126, 197, 126, 53, 127, 119, 127, 131, 127, 134, 128, 183, 127, 152, 128, 160, 127, 99, 127, 4, 129
19, 32, 63, 0, 255, 255, 112, 254, 68, 244, 71, 193, 91, 8, 186, 1, 110, 252, 0, 0, 0, 0, 0, 0, 0, 0, 0, 0, 0, 0
39, 16, 82, 127, 82, 127, 166, 126, 123, 126, 92, 126, 200, 126, 90, 127, 132, 127, 4, 128, 100, 127, 249, 127, 77, 127, 29, 127, 186, 128
40, 16, 72, 127, 90, 127, 6, 127, 209, 126, 159, 126, 20, 127, 113, 127, 123, 127, 220, 127, 115, 127, 222, 127, 60, 127, 236, 126, 167, 128
20, 32, 40, 0, 192, 255, 23, 254, 66, 244, 231, 192, 98, 8, 179, 1, 112, 252, 0, 0, 0, 0, 0, 0, 0, 0, 0, 0, 0, 0
41, 16, 151, 127, 118, 127, 134, 127, 97, 127, 135, 127, 139, 127, 156, 127, 125, 127, 61, 128, 212, 127, 91, 128, 137, 127, 82, 127, 238, 128
42, 16, 174, 127, 105, 127, 83, 127, 231, 126, 58, 127, 88, 127, 149, 127, 136, 127, 79, 128, 176, 127, 109, 128, 140, 127, 186, 127, 231, 128
21, 32, 254, 255, 148, 255, 14, 254, 42, 244, 179, 192, 181, 7, 169, 1, 82, 252, 0, 0, 0, 0, 0, 0, 0, 0, 0, 0, 0, 0
43, 16, 54, 127, 78, 127, 206, 126, 38, 126, 53, 126, 0, 127, 89, 127, 130, 127, 235, 127, 31, 127, 206, 127, 251, 126, 61, 127, 99, 128
44, 16, 83, 127, 144, 127, 37, 127, 21, 127, 218, 126, 93, 127, 180, 127, 126, 127, 33, 128, 55, 127, 213, 127, 13, 127, 13, 127, 131, 128
22, 32, 168, 255, 100, 255, 47, 254, 79, 244, 136, 192, 140, 7, 168, 1, 110, 252, 0, 0, 0, 0, 0, 0, 0, 0, 0, 0, 0, 0
45, 16, 239, 127, 121, 127, 173, 127, 252, 127, 197, 127, 193, 127, 21, 128, 137, 127, 199, 128, 196, 127, 97, 128, 203, 127, 130, 127, 14, 129
25, 32, 82, 255, 199, 255, 221, 254, 182, 244, 170, 192, 98, 6, 175, 1, 110, 252, 0, 0, 0, 0, 0, 0, 0, 0, 0, 0, 0, 0
51, 16, 69, 127, 107, 127, 79, 127, 43, 127, 131, 127, 6, 127, 174, 127, 134, 127, 96, 128, 127, 127, 182, 127, 39, 127, 81, 127, 66, 128
52, 16, 182, 127, 113, 127, 134, 127, 39, 127, 91, 127, 20, 127, 183, 127, 132, 127, 135, 128, 175, 127, 42, 128, 207, 127, 171, 127, 178, 128
26, 32, 32, 255, 15, 0, 250, 254, 90, 245, 156, 192, 218, 5, 170, 1, 95, 252, 0, 0, 0, 0, 0, 0, 0, 0, 0, 0, 0, 0
53, 16, 114, 127, 96, 127, 96, 127, 242, 126, 41, 127, 233, 126, 122, 127, 117, 127, 244, 127, 129, 127, 189, 127, 158, 127, 48, 127, 135, 128
54, 16, 101, 127, 88, 127, 123, 127, 42, 127, 111, 127, 253, 126, 130, 127, 127, 127, 179, 127, 85, 127, 125, 127, 128, 127, 54, 127, 117, 128
27, 32, 237, 254, 7, 0, 252, 254, 60, 245, 239, 192, 142, 5, 168, 1, 102, 252, 0, 0, 0, 0, 0, 0, 0, 0, 0, 0, 0, 0
55, 16, 166, 127, 49, 127, 156, 127, 20, 127, 53, 127, 3, 127, 155, 127, 129, 127, 232, 127, 95, 127, 186, 127, 183, 127, 170, 127, 135, 128
56, 16, 189, 127, 73, 127, 150, 127, 231, 126, 20, 127, 246, 126, 149, 127, 118, 127, 244, 127, 102, 127, 164, 127, 172, 127, 134, 127, 107, 128
28, 32, 214, 254, 24, 0, 188, 254, 161, 244, 178, 192, 188, 5, 168, 1, 65, 252, 0, 0, 0, 0, 0, 0, 0, 0, 0, 0, 0, 0
57, 16, 161, 127, 149, 127, 156, 127, 109, 127, 163, 127, 71, 127, 178, 127, 119, 127, 225, 127, 116, 127, 109, 127, 160, 127, 93, 127, 111, 128
58, 16, 117, 127, 110, 127, 92, 127, 242, 127, 192, 127, 135, 127, 169, 127, 125, 127, 213, 127, 141, 127, 131, 127, 164, 127, 117, 127, 119, 128
29, 32, 185, 254, 36, 0, 184, 254, 158, 244, 71, 192, 120, 5, 162, 1, 98, 252, 0, 0, 0, 0, 0, 0, 0, 0, 0, 0, 0, 0
59, 16, 138, 127, 98, 127, 53, 127, 116, 127, 96, 127, 110, 127, 160, 127, 138, 127, 230, 127, 145, 127, 157, 127, 171, 127, 163, 127, 108, 128
60, 16, 148, 127, 128, 127, 84, 127, 152, 126, 53, 127, 102, 127, 168, 127, 137, 127, 0, 128, 135, 127, 139, 127, 162, 127, 230, 127, 73, 128
30, 32, 156, 254, 61, 0, 226, 254, 247, 244, 61, 192, 146, 5, 163, 1, 121, 252, 0, 0, 0, 0, 0, 0, 0, 0, 0, 0, 0, 0
61, 16, 101, 127, 108, 127, 75, 127, 172, 126, 134, 127, 145, 127, 189, 127, 130, 127, 10, 128, 159, 127, 133, 127, 162, 127, 208, 127, 81, 128
62, 16, 70, 127, 120, 127, 65, 127, 51, 127, 117, 127, 132, 127, 223, 127, 131, 127, 230, 127, 135, 127, 111, 127, 189, 127, 111, 127, 91, 128
31, 32, 127, 254, 79, 0, 236, 254, 121, 244, 235, 192, 124, 5, 164, 1, 95, 252, 0, 0, 0, 0, 0, 0, 0, 0, 0, 0, 0, 0
63, 16, 91, 127, 73, 127, 94, 127, 58, 127, 248, 126, 109, 127, 193, 127, 136, 127, 219, 127, 102, 127, 115, 127, 208, 127, 190, 127, 50, 128
64, 16, 162, 127, 19, 127, 94, 127, 249, 126, 31, 127, 161, 127, 201, 127, 132, 127, 255, 127, 117, 127, 163, 127, 179, 127, 16, 128, 32, 128
32, 32, 139, 254, 79, 0, 165, 254, 18, 244, 196, 192, 74, 5, 155, 1, 98, 252, 0, 0, 0, 0, 0, 0, 0, 0, 0, 0, 0, 0
65, 16, 133, 127, 73, 127, 52, 127, 1, 127, 63, 127, 162, 127, 202, 127, 119, 127, 227, 127, 118, 127, 95, 127, 124, 127, 123, 127, 24, 128
66, 16, 34, 127, 118, 127, 82, 127, 123, 127, 39, 127, 107, 127, 129, 127, 120, 127, 207, 127, 154, 127, 15, 127, 131, 127, 49, 127, 239, 127
33, 32, 160, 254, 113, 0, 109, 254, 234, 243, 141, 192, 98, 5, 160, 1, 82, 252, 0, 0, 0, 0, 0, 0, 0, 0, 0, 0, 0, 0
67, 16, 65, 127, 37, 127, 161, 127, 113, 127, 106, 127, 137, 127, 134, 127, 134, 127, 237, 127, 161, 127, 77, 127, 149, 127, 132, 127, 213, 127
68, 16, 163, 127, 220, 126, 126, 127, 183, 126, 81, 127, 241, 127, 185, 127, 138, 127, 14, 128, 150, 127, 154, 127, 151, 127, 201, 127, 253, 127
34, 32, 136, 254, 143, 0, 41, 254, 25, 244, 30, 193, 6, 5, 159, 1, 91, 252, 0, 0, 0, 0, 0, 0, 0, 0, 0, 0, 0, 0
69, 16, 146, 127, 60, 127, 81, 127, 192, 126, 85, 127, 63, 128, 223, 127, 134, 127, 63, 128, 229, 127, 163, 127, 173, 127, 254, 127, 24, 128
70, 16, 101, 127, 106, 127, 63, 127, 33, 127, 152, 127, 112, 128, 255, 127, 136, 127, 112, 128, 248, 127, 106, 127, 160, 127, 241, 127, 226, 127
35, 32, 124, 254, 133, 0, 232, 253, 13, 244, 169, 193, 240, 4, 134, 1, 85, 252, 0, 0, 0, 0, 0, 0, 0, 0, 0, 0, 0, 0
71, 16, 133, 127, 18, 127, 17, 127, 4, 126, 12, 127, 128, 128, 228, 127, 126, 127, 106, 128, 182, 127, 44, 127, 121, 127, 218, 127, 192, 127
72, 16, 151, 127, 10, 127, 63, 127, 230, 124, 199, 126, 108, 128, 175, 127, 112, 127, 107, 128, 218, 127, 59, 127, 100, 127, 13, 128, 234, 127
36, 32, 116, 254, 131, 0, 3, 253, 100, 243, 127, 194, 42, 5, 139, 1, 87, 252, 0, 0, 0, 0, 0, 0, 0, 0, 0, 0, 0, 0
73, 16, 98, 127, 75, 127, 133, 127, 47, 126, 99, 127, 118, 128, 138, 127, 118, 127, 157, 128, 7, 128, 87, 127, 79, 127, 0, 128, 4, 128
74, 16, 22, 127, 87, 127, 65, 127, 52, 127, 59, 127, 121, 128, 139, 127, 125, 127, 108, 128, 194, 127, 33, 127, 32, 127, 100, 127, 195, 127
74, 16, 22, 127, 87, 127, 65, 127, 52, 127, 59, 127, 121, 128, 139, 127, 125, 127, 108, 128, 194, 127, 33, 127, 32, 127, 100, 127, 195, 127
37, 32, 141, 254, 147, 0, 177, 252, 78, 243, 122, 194, 219, 4, 139, 1, 78, 252, 0, 0, 0, 0, 0, 0, 0, 0, 0, 0, 0, 0
75, 16, 24, 127, 43, 127, 16, 127, 185, 125, 173, 126, 102, 128, 215, 127, 122, 127, 83, 128, 222, 127, 245, 126, 12, 127, 96, 127, 198, 127
76, 16, 65, 127, 59, 127, 71, 127, 82, 125, 40, 127, 164, 128, 4, 128, 124, 127, 224, 128, 34, 128, 21, 127, 45, 127, 7, 128, 253, 127
38, 32, 232, 254, 176, 0, 1, 252, 36, 245, 89, 194, 218, 4, 138, 1, 95, 252, 0, 0, 0, 0, 0, 0, 0, 0, 0, 0, 0, 0
77, 16, 23, 127, 110, 127, 69, 127, 236, 126, 143, 127, 211, 128, 218, 127, 139, 127, 21, 129, 242, 127, 51, 127, 31, 127, 244, 127, 195, 127
78, 16, 206, 126, 49, 127, 243, 126, 160, 126, 184, 126, 187, 128, 193, 127, 134, 127, 147, 128, 196, 127, 6, 127, 200, 126, 11, 127, 116, 127
39, 32, 36, 255, 184, 0, 137, 251, 148, 246, 165, 193, 56, 4, 124, 1, 75, 252, 0, 0, 0, 0, 0, 0, 0, 0, 0, 0, 0, 0
79, 16, 217, 126, 26, 127, 225, 126, 231, 124, 220, 125, 152, 128, 232, 127, 123, 127, 111, 128, 138, 127, 179, 126, 172, 126, 207, 126, 117, 127
80, 16, 21, 127, 93, 127, 51, 127, 120, 125, 86, 126, 157, 128, 209, 127, 138, 127, 243, 128, 119, 127, 234, 126, 7, 127, 145, 127, 144, 127
40, 32, 56, 255, 99, 0, 129, 250, 180, 247, 103, 192, 133, 3, 121, 1, 80, 251, 0, 0, 0, 0, 0, 0, 0, 0, 0, 0, 0, 0
81, 16, 28, 127, 58, 127, 101, 127, 53, 127, 39, 127, 196, 128, 187, 127, 145, 127, 54, 129, 254, 127, 104, 127, 66, 127, 213, 127, 203, 127
82, 16, 251, 126, 35, 127, 67, 127, 87, 127, 186, 126, 186, 128, 240, 127, 131, 127, 250, 128, 71, 128, 70, 127, 26, 127, 113, 127, 216, 127
41, 32, 55, 255, 10, 0, 57, 250, 139, 247, 95, 192, 194, 2, 107, 1, 77, 252, 0, 0, 0, 0, 0, 0, 0, 0, 0, 0, 0, 0
83, 16, 33, 127, 75, 127, 52, 127, 127, 126, 72, 126, 179, 128, 224, 127, 127, 127, 0, 129, 245, 127, 3, 127, 12, 127, 109, 127, 170, 127
84, 16, 92, 127, 81, 127, 88, 127, 208, 126, 195, 126, 4, 129, 201, 127, 140, 127, 88, 129, 255, 127, 63, 127, 71, 127, 178, 127, 202, 127
42, 32, 58, 255, 84, 255, 42, 250, 79, 247, 170, 193, 190, 2, 99, 1, 46, 252, 0, 0, 0, 0, 0, 0, 0, 0, 0, 0, 0, 0
85, 16, 207, 126, 69, 127, 34, 127, 182, 127, 142, 126, 10, 129, 223, 127, 134, 127, 59, 129, 58, 128, 7, 127, 46, 127, 126, 127, 186, 127
86, 16, 86, 126, 0, 127, 196, 126, 22, 127, 193, 125, 154, 128, 196, 127, 121, 127, 213, 128, 247, 127, 140, 126, 201, 126, 54, 127, 48, 127
43, 32, 117, 255, 42, 255, 35, 250, 29, 247, 22, 194, 215, 3, 100, 1, 92, 252, 0, 0, 0, 0, 0, 0, 0, 0, 0, 0, 0, 0
87, 16, 210, 126, 246, 126, 11, 127, 64, 126, 203, 125, 120, 128, 235, 127, 122, 127, 200, 128, 167, 127, 193, 126, 197, 126, 106, 127, 7, 127
88, 16, 1, 127, 59, 127, 120, 127, 21, 127, 112, 126, 179, 128, 42, 128, 119, 127, 22, 129, 247, 127, 236, 126, 20, 127, 122, 127, 53, 127
44, 32, 64, 0, 105, 255, 16, 250, 142, 247, 221, 193, 242, 3, 86, 1, 85, 252, 0, 0, 0, 0, 0, 0, 0, 0, 0, 0, 0, 0
89, 16, 94, 126, 65, 127, 19, 127, 78, 127, 31, 126, 139, 128, 240, 127, 120, 127, 42, 129, 29, 128, 42, 126, 186, 126, 24, 127, 217, 126
90, 16, 237, 125, 23, 127, 94, 126, 227, 125, 167, 125, 71, 128, 180, 127, 125, 127, 193, 128, 148, 127, 170, 125, 245, 125, 213, 126, 49, 126
45, 32, 159, 0, 168, 255, 88, 250, 153, 248, 129, 193, 235, 3, 75, 1, 74, 252, 0, 0, 0, 0, 0, 0, 0, 0, 0, 0, 0, 0
91, 16, 252, 125, 7, 127, 126, 126, 95, 125, 56, 126, 104, 128, 229, 127, 130, 127, 157, 128, 98, 127, 68, 126, 251, 125, 3, 127, 34, 126
92, 16, 98, 126, 50, 127, 53, 127, 40, 126, 143, 126, 178, 128, 33, 128, 142, 127, 6, 129, 229, 127, 197, 126, 151, 126, 102, 127, 206, 126
46, 32, 83, 1, 9, 0, 97, 250, 64, 249, 74, 193, 120, 3, 75, 1, 71, 252, 0, 0, 0, 0, 0, 0, 0, 0, 0, 0, 0, 0
93, 16, 133, 126, 69, 127, 18, 127, 194, 126, 55, 126, 169, 128, 252, 127, 145, 127, 67, 129, 47, 128, 154, 126, 195, 126, 163, 127, 45, 127
94, 16, 36, 126, 30, 127, 123, 126, 128, 126, 241, 125, 92, 128, 181, 127, 130, 127, 10, 129, 244, 127, 121, 126, 127, 126, 178, 127, 198, 126
47, 32, 148, 1, 44, 0, 75, 250, 163, 249, 170, 192, 225, 2, 60, 1, 66, 252, 0, 0, 0, 0, 0, 0, 0, 0, 0, 0, 0, 0
95, 16, 7, 126, 29, 127, 174, 126, 44, 126, 253, 125, 81, 128, 199, 127, 123, 127, 46, 129, 47, 128, 153, 126, 104, 126, 220, 127, 166, 126
96, 16, 109, 126, 30, 127, 31, 127, 157, 126, 62, 126, 166, 128, 7, 128, 128, 127, 179, 129, 192, 128, 191, 126, 154, 126, 33, 128, 22, 127
48, 32, 178, 1, 95, 0, 181, 250, 73, 250, 203, 192, 11, 3, 51, 1, 81, 252, 0, 0, 0, 0, 0, 0, 0, 0, 0, 0, 0, 0
97, 16, 176, 126, 10, 127, 14, 127, 161, 126, 73, 126, 186, 128, 38, 128, 130, 127, 142, 129, 120, 128, 161, 126, 164, 126, 254, 127, 4, 127
98, 16, 103, 126, 254, 126, 226, 126, 200, 125, 255, 125, 151, 128, 4, 128, 129, 127, 34, 129, 216, 127, 88, 126, 84, 126, 135, 127, 130, 126
49, 32, 176, 1, 109, 0, 212, 250, 195, 251, 0, 193, 200, 3, 53, 1, 115, 252, 0, 0, 0, 0, 0, 0, 0, 0, 0, 0, 0, 0
99, 16, 13, 126, 25, 127, 244, 126, 191, 125, 42, 126, 176, 128, 228, 127, 137, 127, 54, 129, 244, 127, 56, 126, 23, 126, 78, 127, 98, 126
100, 16, 73, 126, 59, 127, 29, 127, 89, 126, 179, 126, 226, 128, 242, 127, 140, 127, 123, 129, 87, 128, 117, 126, 91, 126, 186, 127, 143, 126
50, 32, 6, 2, 179, 0, 243, 250, 149, 252, 221, 192, 89, 4, 49, 1, 73, 252, 0, 0, 0, 0, 0, 0, 0, 0, 0, 0, 0, 0
101, 16, 136, 126, 29, 127, 17, 127, 59, 126, 160, 126, 239, 128, 250, 127, 127, 127, 133, 129, 53, 128, 232, 126, 202, 126, 45, 128, 190, 126
102, 16, 54, 126, 73, 127, 232, 126, 116, 126, 92, 126, 179, 128, 245, 127, 132, 127, 89, 129, 17, 128, 7, 127, 242, 126, 1, 128, 219, 126
51, 32, 21, 2, 244, 0, 254, 250, 75, 253, 167, 192, 177, 4, 38, 1, 102, 252, 0, 0, 0, 0, 0, 0, 0, 0, 0, 0, 0, 0
103, 16, 39, 126, 98, 127, 26, 127, 76, 127, 100, 126, 116, 128, 228, 127, 145, 127, 99, 129, 96, 128, 233, 126, 249, 126, 196, 127, 244, 126
104, 16, 171, 126, 27, 127, 118, 127, 37, 127, 144, 126, 168, 128, 188, 127, 136, 127, 204, 129, 209, 128, 63, 127, 24, 127, 19, 128, 36, 127
52, 32, 4, 2, 55, 1, 25, 251, 79, 254, 227, 192, 145, 4, 42, 1, 82, 252, 0, 0, 0, 0, 0, 0, 0, 0, 0, 0, 0, 0
105, 16, 230, 126, 63, 127, 101, 127, 46, 126, 214, 126, 1, 129, 220, 127, 141, 127, 5, 130, 251, 128, 173, 127, 62, 127, 132, 128, 86, 127
106, 16, 116, 126, 74, 127, 2, 127, 57, 126, 197, 126, 207, 128, 232, 127, 145, 127, 170, 129, 184, 128, 48, 127, 253, 126, 77, 128, 18, 127
53, 32, 233, 1, 75, 1, 60, 251, 200, 254, 177, 192, 19, 4, 32, 1, 86, 252, 0, 0, 0, 0, 0, 0, 0, 0, 0, 0, 0, 0
107, 16, 11, 126, 11, 127, 210, 126, 6, 127, 109, 126, 101, 128, 204, 127, 134, 127, 119, 129, 144, 128, 128, 126, 154, 126, 234, 127, 143, 126
108, 16, 101, 126, 0, 127, 250, 126, 251, 126, 215, 126, 135, 128, 10, 128, 139, 127, 216, 129, 211, 128, 227, 126, 226, 126, 74, 128, 161, 126
54, 32, 140, 1, 8, 1, 171, 251, 85, 255, 73, 191, 222, 3, 16, 1, 89, 252, 0, 0, 0, 0, 0, 0, 0, 0, 0, 0, 0, 0
109, 16, 191, 126, 48, 127, 47, 127, 79, 126, 73, 127, 179, 128, 30, 128, 142, 127, 210, 129, 221, 128, 89, 127, 247, 126, 139, 128, 185, 126
110, 16, 81, 126, 85, 127, 33, 127, 164, 126, 150, 126, 100, 128, 206, 127, 127, 127, 84, 129, 80, 128, 217, 126, 47, 126, 6, 128, 61, 126
55, 32, 41, 1, 181, 0, 232, 251, 199, 255, 159, 190, 143, 3, 15, 1, 93, 252, 0, 0, 0, 0, 0, 0, 0, 0, 0, 0, 0, 0
111, 16, 31, 126, 42, 127, 248, 126, 148, 127, 84, 126, 75, 128, 181, 127, 128, 127, 84, 129, 28, 128, 125, 126, 226, 125, 246, 127, 252, 125
112, 16, 122, 126, 57, 127, 31, 127, 170, 127, 239, 126, 160, 128, 235, 127, 143, 127, 138, 129, 63, 128, 162, 126, 70, 126, 0, 128, 45, 126
56, 32, 126, 0, 246, 255, 232, 252, 224, 255, 48, 191, 11, 4, 249, 0, 103, 252, 0, 0, 0, 0, 0, 0, 0, 0, 0, 0, 0, 0
113, 16, 53, 126, 132, 127, 42, 127, 96, 127, 55, 127, 185, 128, 215, 127, 136, 127, 96, 129, 240, 127, 123, 126, 34, 126, 99, 127, 21, 126
114, 16, 255, 125, 76, 127, 248, 126, 27, 127, 245, 126, 136, 128, 175, 127, 132, 127, 66, 129, 213, 127, 90, 126, 255, 125, 134, 127, 250, 125
57, 32, 88, 0, 192, 255, 139, 253, 173, 0, 224, 192, 230, 3, 3, 1, 88, 252, 0, 0, 0, 0, 0, 0, 0, 0, 0, 0, 0, 0
115, 16, 87, 126, 17, 127, 21, 127, 29, 127, 237, 126, 129, 128, 222, 127, 139, 127, 99, 129, 249, 127, 153, 126, 120, 126, 32, 128, 55, 126
116, 16, 41, 126, 89, 127, 29, 127, 202, 127, 248, 126, 121, 128, 221, 127, 130, 127, 117, 129, 167, 127, 158, 126, 155, 126, 242, 127, 41, 126
58, 32, 150, 0, 59, 255, 240, 253, 231, 0, 211, 193, 136, 4, 5, 1, 103, 252, 0, 0, 0, 0, 0, 0, 0, 0, 0, 0, 0, 0
117, 16, 34, 126, 137, 127, 4, 127, 18, 128, 145, 126, 117, 128, 223, 127, 126, 127, 112, 129, 117, 127, 113, 126, 117, 126, 186, 127, 28, 126
118, 16, 211, 126, 84, 127, 93, 127, 219, 127, 201, 126, 136, 128, 242, 127, 128, 127, 96, 129, 215, 127, 165, 126, 178, 126, 11, 128, 139, 126
59, 32, 196, 0, 42, 255, 254, 253, 85, 253, 61, 194, 60, 5, 250, 0, 92, 252, 0, 0, 0, 0, 0, 0, 0, 0, 0, 0, 0, 0
119, 16, 238, 126, 50, 127, 127, 127, 1, 128, 88, 127, 91, 128, 217, 127, 119, 127, 52, 129, 204, 127, 179, 126, 193, 126, 41, 128, 143, 126
120, 16, 128, 126, 102, 127, 29, 127, 35, 128, 192, 126, 23, 128, 255, 127, 121, 127, 222, 128, 73, 127, 102, 126, 89, 126, 236, 127, 3, 126
60, 32, 75, 1, 204, 255, 149, 254, 5, 252, 154, 193, 65, 6, 2, 1, 87, 252, 0, 0, 0, 0, 0, 0, 0, 0, 0, 0, 0, 0
121, 16, 169, 126, 120, 127, 5, 127, 46, 128, 115, 126, 47, 128, 227, 127, 134, 127, 224, 128, 171, 127, 193, 126, 129, 126, 14, 128, 57, 126
122, 16, 7, 127, 74, 127, 66, 127, 91, 128, 95, 127, 97, 128, 146, 127, 135, 127, 99, 129, 72, 128, 56, 127, 19, 127, 141, 128, 221, 126
61, 32, 104, 1, 59, 0, 6, 255, 26, 253, 111, 193, 197, 5, 249, 0, 78, 252, 0, 0, 0, 0, 0, 0, 0, 0, 0, 0, 0, 0
123, 16, 240, 126, 88, 127, 98, 127, 142, 128, 119, 127, 70, 128, 210, 127, 131, 127, 117, 129, 211, 127, 206, 126, 7, 127, 112, 128, 170, 126
124, 16, 201, 126, 109, 127, 84, 127, 245, 128, 187, 126, 49, 128, 234, 127, 135, 127, 249, 128, 61, 127, 112, 126, 207, 126, 236, 127, 97, 126
62, 32, 168, 1, 141, 0, 81, 255, 168, 255, 183, 193, 16, 6, 1, 1, 106, 252, 0, 0, 0, 0, 0, 0, 0, 0, 0, 0, 0, 0
125, 16, 34, 127, 110, 127, 158, 127, 243, 128, 69, 127, 89, 128, 154, 127, 130, 127, 26, 129, 181, 127, 11, 127, 69, 127, 104, 128, 220, 126
126, 16, 170, 127, 90, 127, 250, 127, 203, 128, 151, 127, 105, 128, 160, 127, 126, 127, 151, 129, 46, 128, 148, 127, 209, 127, 25, 129, 70, 127
63, 32, 167, 1, 81, 0, 10, 255, 84, 0, 159, 193, 80, 6, 3, 1, 99, 252, 0, 0, 0, 0, 0, 0, 0, 0, 0, 0, 0, 0
127, 16, 152, 127, 109, 127, 193, 127, 137, 129, 16, 127, 56, 128, 230, 127, 142, 127, 127, 129, 170, 127, 71, 127, 177, 127, 194, 128, 30, 127
0, 16, 76, 127, 166, 127, 134, 127, 205, 129, 36, 127, 251, 127, 245, 127, 142, 127, 39, 129, 73, 127, 13, 127, 114, 127, 94, 128, 250, 126
0, 32, 174, 1, 33, 0, 158, 254, 174, 255, 201, 192, 250, 5, 0, 1, 99, 252, 0, 0, 0, 0, 0, 0, 0, 0, 0, 0, 0, 0
1, 16, 59, 127, 108, 127, 166, 127, 140, 128, 109, 127, 29, 128, 222, 127, 122, 127, 42, 129, 160, 127, 87, 127, 136, 127, 108, 128, 252, 126
2, 16, 70, 127, 64, 127, 174, 127, 80, 128, 32, 127, 34, 128, 223, 127, 130, 127, 44, 129, 199, 127, 144, 127, 132, 127, 152, 128, 235, 126
1, 32, 166, 1, 212, 255, 144, 254, 30, 255, 37, 193, 74, 6, 247, 0, 105, 252, 0, 0, 0, 0, 0, 0, 0, 0, 0, 0, 0, 0
3, 16, 56, 127, 92, 127, 103, 127, 84, 129, 36, 127, 195, 127, 228, 127, 145, 127, 27, 129, 193, 127, 118, 127, 124, 127, 253, 128, 248, 126
4, 16, 48, 127, 98, 127, 83, 127, 199, 128, 156, 127, 95, 127, 224, 127, 136, 127, 59, 129, 228, 127, 114, 127, 203, 127, 15, 129, 60, 127
2, 32, 146, 1, 202, 255, 157, 254, 0, 254, 35, 193, 211, 6, 251, 0, 70, 252, 0, 0, 0, 0, 0, 0, 0, 0, 0, 0, 0, 0
5, 16, 67, 127, 118, 127, 114, 127, 167, 127, 45, 127, 77, 127, 2, 128, 132, 127, 42, 129, 235, 127, 185, 127, 21, 128, 225, 128, 110, 127
6, 16, 132, 127, 125, 127, 135, 127, 128, 128, 184, 126, 147, 127, 22, 128, 138, 127, 29, 129, 254, 127, 229, 127, 45, 128, 84, 129, 145, 127
3, 32, 103, 1, 189, 255, 236, 254, 162, 253, 196, 192, 95, 7, 247, 0, 118, 252, 0, 0, 0, 0, 0, 0, 0, 0, 0, 0, 0, 0
7, 16, 177, 127, 126, 127, 155, 127, 155, 129, 83, 127, 121, 127, 238, 127, 137, 127, 45, 129, 25, 128, 158, 127, 30, 128, 84, 129, 152, 127
8, 16, 111, 127, 121, 127, 129, 127, 192, 128, 128, 127, 9, 127, 169, 127, 132, 127, 1, 129, 222, 127, 124, 127, 233, 127, 164, 128, 89, 127
4, 32, 89, 1, 219, 255, 45, 255, 227, 252, 113, 191, 81, 7, 2, 1, 106, 252, 0, 0, 0, 0, 0, 0, 0, 0, 0, 0, 0, 0
9, 16, 106, 127, 130, 127, 115, 127, 59, 128, 68, 127, 67, 127, 158, 127, 135, 127, 14, 129, 204, 127, 231, 127, 16, 128, 230, 128, 98, 127
10, 16, 220, 127, 167, 127, 180, 127, 27, 129, 16, 128, 1, 128, 218, 127, 141, 127, 65, 129, 39, 128, 42, 128, 157, 128, 184, 129, 197, 127
5, 32, 40, 1, 37, 0, 37, 0, 197, 253, 136, 190, 193, 6, 245, 0, 103, 252, 0, 0, 0, 0, 0, 0, 0, 0, 0, 0, 0, 0
11, 16, 232, 127, 140, 127, 195, 127, 30, 129, 150, 128, 48, 128, 236, 127, 136, 127, 25, 129, 22, 128, 246, 127, 149, 128, 144, 129, 211, 127
12, 16, 141, 127, 109, 127, 144, 127, 73, 128, 106, 127, 202, 127, 215, 127, 131, 127, 171, 128, 150, 127, 180, 127, 1, 128, 221, 128, 111, 127
6, 32, 225, 0, 44, 0, 124, 0, 243, 253, 92, 191, 197, 6, 247, 0, 106, 252, 0, 0, 0, 0, 0, 0, 0, 0, 0, 0, 0, 0
13, 16, 110, 127, 124, 127, 155, 127, 79, 128, 172, 126, 147, 127, 204, 127, 130, 127, 120, 128, 106, 127, 157, 127, 232, 127, 202, 128, 25, 127
14, 16, 153, 127, 138, 127, 186, 127, 200, 128, 102, 127, 138, 127, 201, 127, 128, 127, 156, 128, 135, 127, 165, 127, 16, 128, 72, 129, 48, 127
7, 32, 63, 0, 9, 0, 159, 0, 43, 254, 18, 192, 222, 5, 249, 0, 109, 252, 0, 0, 0, 0, 0, 0, 0, 0, 0, 0, 0, 0
15, 16, 145, 127, 120, 127, 152, 127, 149, 128, 226, 127, 124, 127, 244, 127, 126, 127, 193, 128, 142, 127, 172, 127, 16, 128, 114, 129, 109, 127
16, 16, 104, 127, 61, 127, 118, 127, 74, 128, 168, 127, 124, 127, 209, 127, 129, 127, 170, 128, 116, 127, 148, 127, 13, 128, 228, 128, 80, 127
8, 32, 237, 255, 231, 255, 92, 0, 239, 253, 72, 192, 40, 6, 241, 0, 113, 252, 0, 0, 0, 0, 0, 0, 0, 0, 0, 0, 0, 0
17, 16, 122, 127, 100, 127, 128, 127, 127, 128, 167, 127, 124, 127, 113, 127, 136, 127, 144, 128, 141, 127, 148, 127, 238, 127, 172, 128, 16, 127
18, 16, 112, 127, 171, 127, 119, 127, 127, 128, 200, 127, 94, 127, 150, 127, 131, 127, 144, 128, 134, 127, 145, 127, 171, 127, 228, 128, 2, 127
9, 32, 159, 255, 222, 255, 168, 255, 210, 252, 206, 192, 187, 6, 248, 0, 117, 252, 0, 0, 0, 0, 0, 0, 0, 0, 0, 0, 0, 0
19, 16, 121, 127, 98, 127, 106, 127, 249, 127, 235, 127, 90, 127, 236, 127, 127, 127, 149, 128, 71, 127, 139, 127, 206, 127, 239, 128, 26, 127
20, 16, 211, 127, 85, 127, 150, 127, 1, 128, 212, 127, 163, 127, 240, 127, 134, 127, 191, 128, 116, 127, 217, 127, 73, 128, 50, 129, 79, 127
10, 32, 179, 255, 249, 255, 119, 255, 186, 252, 97, 192, 106, 6, 241, 0, 108, 252, 0, 0, 0, 0, 0, 0, 0, 0, 0, 0, 0, 0
21, 16, 200, 127, 145, 127, 186, 127, 202, 128, 172, 127, 237, 127, 213, 127, 141, 127, 212, 128, 221, 127, 6, 128, 76, 128, 86, 129, 96, 127
22, 16, 147, 127, 167, 127, 231, 127, 16, 129, 31, 128, 228, 127, 216, 127, 139, 127, 189, 128, 230, 127, 24, 128, 32, 128, 48, 129, 72, 127
11, 32, 204, 255, 96, 0, 34, 255, 31, 253, 252, 191, 235, 6, 233, 0, 94, 252, 0, 0, 0, 0, 0, 0, 0, 0, 0, 0, 0, 0
23, 16, 210, 127, 163, 127, 12, 128, 180, 128, 97, 128, 170, 127, 233, 127, 139, 127, 188, 128, 158, 127, 78, 128, 83, 128, 72, 129, 103, 127
24, 16, 15, 128, 131, 127, 0, 128, 190, 128, 57, 128, 148, 127, 216, 127, 144, 127, 160, 128, 103, 127, 99, 128, 164, 128, 110, 129, 163, 127
12, 32, 200, 255, 91, 0, 242, 254, 9, 254, 97, 192, 54, 6, 251, 0, 106, 252, 0, 0, 0, 0, 0, 0, 0, 0, 0, 0, 0, 0
25, 16, 239, 127, 154, 127, 7, 128, 96, 129, 102, 128, 161, 127, 194, 127, 133, 127, 62, 128, 66, 127, 89, 128, 206, 128, 96, 129, 156, 127
26, 16, 229, 127, 168, 127, 56, 128, 135, 129, 160, 128, 160, 127, 153, 127, 119, 127, 40, 128, 117, 127, 125, 128, 221, 128, 131, 129, 103, 127
13, 32, 170, 255, 43, 0, 116, 254, 95, 254, 180, 192, 38, 6, 239, 0, 116, 252, 0, 0, 0, 0, 0, 0, 0, 0, 0, 0, 0, 0
27, 16, 244, 127, 134, 127, 105, 128, 4, 129, 39, 128, 120, 127, 143, 127, 130, 127, 84, 128, 158, 127, 145, 128, 242, 128, 81, 129, 86, 127
28, 16, 216, 127, 136, 127, 149, 128, 239, 128, 224, 127, 97, 127, 172, 127, 139, 127, 58, 128, 33, 127, 99, 128, 26, 129, 240, 128, 99, 127
14, 32, 171, 255, 5, 0, 25, 254, 194, 254, 149, 192, 32, 6, 227, 0, 102, 252, 0, 0, 0, 0, 0, 0, 0, 0, 0, 0, 0, 0
29, 16, 233, 127, 163, 127, 172, 128, 157, 129, 77, 128, 133, 127, 188, 127, 125, 127, 31, 128, 19, 127, 172, 128, 95, 129, 135, 129, 148, 127
29, 16, 233, 127, 163, 127, 172, 128, 157, 129, 77, 128, 133, 127, 188, 127, 125, 127, 31, 128, 19, 127, 172, 128, 95, 129, 135, 129, 148, 127
30, 16, 15, 128, 164, 127, 182, 128, 10, 130, 132, 128, 154, 127, 221, 127, 124, 127, 61, 128, 157, 127, 20, 129, 159, 129, 15, 130, 214, 127
15, 32, 100, 255, 154, 255, 142, 253, 235, 254, 122, 192, 215, 5, 236, 0, 107, 252, 0, 0, 0, 0, 0, 0, 0, 0, 0, 0, 0, 0
31, 16, 0, 128, 158, 127, 157, 128, 12, 130, 77, 128, 145, 127, 192, 127, 130, 127, 93, 128, 142, 127, 185, 128, 146, 129, 114, 129, 223, 127
32, 16, 236, 127, 167, 127, 57, 128, 233, 129, 213, 127, 115, 127, 164, 127, 121, 127, 4, 128, 218, 126, 30, 128, 36, 129, 194, 128, 143, 127
16, 32, 64, 255, 81, 255, 97, 253, 240, 254, 77, 192, 201, 5, 230, 0, 107, 252, 0, 0, 0, 0, 0, 0, 0, 0, 0, 0, 0, 0
33, 16, 244, 127, 147, 127, 33, 128, 163, 129, 61, 128, 119, 127, 204, 127, 126, 127, 191, 127, 235, 126, 105, 128, 16, 129, 6, 129, 158, 127
34, 16, 27, 128, 130, 127, 117, 128, 120, 129, 210, 128, 203, 127, 190, 127, 140, 127, 108, 128, 219, 127, 67, 129, 137, 129, 174, 129, 66, 128
17, 32, 218, 254, 208, 254, 71, 253, 138, 254, 111, 192, 128, 5, 238, 0, 84, 252, 0, 0, 0, 0, 0, 0, 0, 0, 0, 0, 0, 0
35, 16, 55, 128, 158, 127, 84, 128, 216, 128, 235, 127, 230, 127, 191, 127, 137, 127, 209, 128, 2, 128, 15, 129, 121, 129, 140, 129, 93, 128
36, 16, 223, 127, 145, 127, 148, 127, 132, 128, 155, 127, 190, 127, 208, 127, 122, 127, 149, 128, 121, 127, 95, 128, 207, 128, 33, 129, 242, 127
18, 32, 189, 254, 190, 254, 71, 253, 185, 254, 73, 192, 248, 4, 228, 0, 99, 252, 0, 0, 0, 0, 0, 0, 0, 0, 0, 0, 0, 0
37, 16, 111, 127, 88, 127, 53, 127, 179, 128, 55, 128, 179, 127, 180, 127, 125, 127, 182, 128, 125, 127, 109, 128, 124, 128, 30, 129, 174, 127
38, 16, 134, 127, 106, 127, 119, 127, 21, 128, 168, 127, 185, 127, 189, 127, 137, 127, 238, 128, 203, 127, 133, 128, 121, 128, 41, 129, 174, 127
19, 32, 138, 254, 111, 254, 123, 253, 24, 255, 227, 192, 254, 4, 210, 0, 95, 252, 0, 0, 0, 0, 0, 0, 0, 0, 0, 0, 0, 0
39, 16, 174, 127, 129, 127, 145, 127, 128, 127, 42, 127, 184, 127, 188, 127, 135, 127, 192, 128, 178, 127, 39, 128, 88, 128, 34, 129, 214, 127
40, 16, 125, 127, 161, 127, 114, 127, 37, 128, 242, 127, 216, 127, 169, 127, 133, 127, 140, 128, 187, 127, 35, 128, 82, 128, 93, 129, 241, 127
20, 32, 131, 254, 95, 254, 144, 253, 136, 255, 235, 192, 5, 5, 223, 0, 96, 252, 0, 0, 0, 0, 0, 0, 0, 0, 0, 0, 0, 0
41, 16, 121, 127, 173, 127, 110, 127, 149, 128, 34, 128, 3, 128, 186, 127, 131, 127, 199, 128, 254, 127, 111, 128, 106, 128, 147, 129, 240, 127
42, 16, 121, 127, 107, 127, 101, 127, 226, 127, 94, 127, 225, 127, 162, 127, 122, 127, 212, 128, 218, 127, 70, 128, 50, 128, 41, 129, 203, 127
21, 32, 126, 254, 57, 254, 128, 253, 212, 255, 195, 193, 188, 4, 221, 0, 124, 252, 0, 0, 0, 0, 0, 0, 0, 0, 0, 0, 0, 0
43, 16, 55, 127, 74, 127, 26, 127, 65, 127, 30, 127, 168, 127, 149, 127, 126, 127, 93, 128, 85, 127, 201, 127, 164, 127, 142, 128, 93, 127
44, 16, 29, 127, 80, 127, 228, 126, 53, 127, 195, 127, 100, 127, 213, 127, 141, 127, 22, 128, 6, 127, 133, 127, 127, 127, 146, 128, 18, 127
22, 32, 152, 254, 73, 254, 98, 253, 14, 0, 181, 193, 2, 3, 220, 0, 75, 252, 0, 0, 0, 0, 0, 0, 0, 0, 0, 0, 0, 0
45, 16, 108, 127, 142, 127, 102, 127, 164, 127, 70, 128, 233, 126, 244, 127, 146, 127, 105, 128, 87, 127, 197, 127, 13, 128, 22, 129, 120, 127
46, 16, 233, 127, 157, 127, 235, 127, 48, 128, 7, 128, 226, 126, 205, 127, 140, 127, 255, 128, 250, 127, 103, 128, 148, 128, 107, 129, 7, 128
23, 32, 196, 254, 86, 254, 36, 253, 244, 0, 60, 193, 200, 3, 217, 0, 81, 252, 0, 0, 0, 0, 0, 0, 0, 0, 0, 0, 0, 0
47, 16, 14, 128, 99, 127, 174, 127, 11, 128, 4, 128, 81, 127, 206, 127, 141, 127, 254, 128, 56, 128, 152, 128, 134, 128, 116, 129, 20, 128
48, 16, 175, 127, 123, 127, 101, 127, 187, 127, 139, 128, 68, 127, 220, 127, 135, 127, 133, 128, 216, 127, 96, 128, 78, 128, 110, 129, 216, 127
24, 32, 225, 254, 61, 254, 205, 252, 161, 1, 50, 193, 44, 3, 212, 0, 77, 252, 0, 0, 0, 0, 0, 0, 0, 0, 0, 0, 0, 0
49, 16, 100, 127, 159, 127, 115, 127, 248, 127, 105, 128, 1, 127, 187, 127, 122, 127, 86, 128, 190, 127, 135, 128, 95, 128, 53, 129, 185, 127
50, 16, 135, 127, 134, 127, 117, 127, 198, 127, 212, 127, 61, 127, 206, 127, 131, 127, 160, 128, 240, 127, 137, 128, 93, 128, 254, 128, 172, 127
25, 32, 201, 254, 217, 253, 168, 252, 179, 1, 108, 193, 233, 2, 203, 0, 76, 252, 0, 0, 0, 0, 0, 0, 0, 0, 0, 0, 0, 0
51, 16, 158, 127, 102, 127, 116, 127, 224, 126, 247, 127, 88, 127, 228, 127, 146, 127, 221, 128, 201, 127, 12, 128, 28, 128, 8, 129, 140, 127
52, 16, 91, 127, 124, 127, 97, 127, 12, 127, 87, 128, 54, 127, 197, 127, 140, 127, 21, 129, 179, 127, 242, 127, 250, 127, 36, 129, 116, 127
26, 32, 220, 254, 188, 253, 143, 252, 243, 1, 150, 193, 190, 2, 201, 0, 79, 252, 0, 0, 0, 0, 0, 0, 0, 0, 0, 0, 0, 0
26, 32, 220, 254, 188, 253, 143, 252, 243, 1, 150, 193, 190, 2, 201, 0, 79, 252, 0, 0, 0, 0, 0, 0, 0, 0, 0, 0, 0, 0
53, 16, 54, 127, 171, 127, 106, 127, 238, 127, 79, 128, 68, 127, 197, 127, 134, 127, 87, 129, 251, 127, 40, 128, 15, 128, 75, 129, 127, 127
54, 16, 105, 127, 119, 127, 163, 127, 145, 127, 76, 128, 94, 127, 203, 127, 134, 127, 17, 129, 57, 128, 53, 128, 18, 128, 145, 129, 158, 127
27, 32, 208, 254, 136, 253, 101, 252, 226, 1, 250, 193, 124, 2, 209, 0, 83, 252, 0, 0, 0, 0, 0, 0, 0, 0, 0, 0, 0, 0
55, 16, 137, 127, 94, 127, 135, 127, 235, 126, 124, 128, 78, 127, 201, 127, 135, 127, 115, 128, 253, 127, 52, 128, 252, 127, 107, 129, 156, 127
56, 16, 102, 127, 158, 127, 68, 127, 132, 127, 196, 128, 100, 127, 212, 127, 132, 127, 108, 128, 216, 127, 91, 128, 5, 128, 61, 129, 144, 127
28, 32, 205, 254, 105, 253, 84, 252, 105, 2, 225, 193, 212, 1, 196, 0, 68, 252, 0, 0, 0, 0, 0, 0, 0, 0, 0, 0, 0, 0
57, 16, 97, 127, 151, 127, 101, 127, 223, 127, 180, 128, 145, 127, 211, 127, 130, 127, 206, 128, 70, 128, 151, 128, 29, 128, 182, 129, 142, 127
58, 16, 134, 127, 118, 127, 165, 127, 66, 127, 124, 128, 113, 127, 222, 127, 140, 127, 225, 128, 125, 128, 146, 128, 24, 128, 224, 129, 141, 127
29, 32, 212, 254, 50, 253, 72, 252, 235, 2, 48, 194, 173, 1, 198, 0, 86, 252, 0, 0, 0, 0, 0, 0, 0, 0, 0, 0, 0, 0
59, 16, 143, 127, 115, 127, 166, 127, 45, 127, 160, 128, 93, 127, 226, 127, 145, 127, 217, 128, 53, 128, 54, 128, 11, 128, 97, 129, 143, 127
60, 16, 100, 127, 123, 127, 117, 127, 224, 127, 255, 128, 136, 127, 239, 127, 134, 127, 202, 128, 16, 128, 235, 127, 253, 127, 43, 129, 122, 127
30, 32, 224, 254, 37, 253, 85, 252, 19, 3, 69, 194, 64, 1, 184, 0, 64, 252, 0, 0, 0, 0, 0, 0, 0, 0, 0, 0, 0, 0
61, 16, 51, 127, 128, 127, 64, 127, 211, 127, 10, 129, 132, 127, 236, 127, 128, 127, 103, 128, 9, 128, 230, 127, 217, 127, 73, 129, 105, 127
62, 16, 77, 127, 123, 127, 55, 127, 254, 126, 159, 128, 82, 127, 169, 127, 138, 127, 106, 128, 247, 127, 255, 127, 186, 127, 78, 129, 86, 127
31, 32, 224, 254, 0, 253, 135, 252, 252, 2, 236, 194, 122, 1, 202, 0, 69, 252, 0, 0, 0, 0, 0, 0, 0, 0, 0, 0, 0, 0
63, 16, 163, 127, 154, 127, 128, 127, 199, 126, 144, 128, 110, 127, 171, 127, 142, 127, 5, 129, 41, 128, 30, 128, 219, 127, 142, 129, 79, 127
64, 16, 152, 127, 142, 127, 171, 127, 11, 127, 5, 129, 165, 127, 210, 127, 138, 127, 67, 129, 72, 128, 55, 128, 17, 128, 206, 129, 119, 127
32, 32, 253, 254, 14, 253, 146, 252, 34, 3, 4, 195, 98, 1, 188, 0, 63, 252, 0, 0, 0, 0, 0, 0, 0, 0, 0, 0, 0, 0
65, 16, 58, 127, 128, 127, 131, 127, 51, 127, 32, 129, 128, 127, 185, 127, 141, 127, 43, 129, 48, 128, 52, 128, 231, 127, 227, 129, 139, 127
66, 16, 10, 127, 151, 127, 92, 127, 164, 127, 177, 128, 126, 127, 171, 127, 142, 127, 75, 129, 81, 128, 26, 128, 149, 127, 8, 130, 74, 127
33, 32, 91, 255, 29, 253, 189, 252, 213, 3, 84, 194, 183, 0, 187, 0, 78, 252, 0, 0, 0, 0, 0, 0, 0, 0, 0, 0, 0, 0
67, 16, 10, 127, 129, 127, 51, 127, 159, 127, 114, 128, 166, 127, 186, 127, 139, 127, 48, 129, 77, 128, 219, 127, 135, 127, 238, 129, 13, 127
68, 16, 28, 127, 147, 127, 46, 127, 243, 126, 196, 128, 172, 127, 210, 127, 142, 127, 220, 128, 253, 127, 224, 127, 153, 127, 232, 129, 46, 127
34, 32, 101, 255, 27, 253, 228, 252, 65, 4, 51, 194, 252, 0, 189, 0, 65, 252, 0, 0, 0, 0, 0, 0, 0, 0, 0, 0, 0, 0
69, 16, 248, 126, 145, 127, 64, 127, 215, 126, 246, 128, 139, 127, 197, 127, 138, 127, 216, 128, 243, 127, 4, 128, 129, 127, 7, 130, 50, 127
70, 16, 252, 126, 124, 127, 78, 127, 7, 127, 210, 128, 128, 127, 196, 127, 141, 127, 242, 128, 19, 128, 176, 127, 127, 127, 213, 129, 15, 127
35, 32, 123, 255, 229, 252, 47, 253, 226, 4, 157, 193, 83, 0, 190, 0, 59, 252, 0, 0, 0, 0, 0, 0, 0, 0, 0, 0, 0, 0
71, 16, 111, 127, 176, 127, 116, 127, 239, 126, 232, 128, 219, 127, 232, 127, 147, 127, 213, 128, 240, 127, 152, 127, 191, 127, 189, 129, 43, 127
72, 16, 125, 127, 170, 127, 96, 127, 179, 126, 250, 128, 181, 127, 200, 127, 130, 127, 174, 128, 179, 127, 238, 127, 165, 127, 222, 129, 43, 127
36, 32, 140, 255, 218, 252, 104, 253, 186, 5, 4, 194, 137, 0, 198, 0, 77, 252, 0, 0, 0, 0, 0, 0, 0, 0, 0, 0, 0, 0
73, 16, 19, 127, 136, 127, 66, 127, 201, 126, 159, 128, 185, 126, 167, 127, 130, 127, 155, 128, 169, 127, 203, 127, 76, 127, 218, 129, 225, 126
74, 16, 255, 126, 112, 127, 76, 127, 85, 127, 142, 128, 65, 126, 181, 127, 145, 127, 165, 128, 195, 127, 115, 127, 104, 127, 193, 129, 244, 126
37, 32, 175, 255, 200, 252, 172, 253, 216, 5, 131, 194, 27, 0, 195, 0, 57, 252, 0, 0, 0, 0, 0, 0, 0, 0, 0, 0, 0, 0
75, 16, 64, 127, 93, 127, 93, 127, 100, 127, 246, 128, 138, 126, 187, 127, 141, 127, 153, 128, 222, 127, 159, 127, 176, 127, 186, 129, 82, 127
76, 16, 49, 127, 125, 127, 121, 127, 247, 126, 25, 129, 155, 126, 191, 127, 133, 127, 134, 128, 218, 127, 244, 127, 127, 127, 212, 129, 55, 127
38, 32, 201, 255, 179, 252, 178, 253, 14, 6, 41, 195, 174, 255, 182, 0, 60, 252, 0, 0, 0, 0, 0, 0, 0, 0, 0, 0, 0, 0
77, 16, 234, 126, 137, 127, 62, 127, 202, 126, 251, 128, 117, 126, 186, 127, 132, 127, 143, 128, 187, 127, 224, 127, 40, 127, 1, 130, 242, 126
78, 16, 203, 126, 97, 127, 234, 126, 138, 126, 244, 128, 125, 126, 200, 127, 128, 127, 124, 128, 155, 127, 126, 127, 31, 127, 249, 129, 11, 127
39, 32, 230, 255, 124, 252, 132, 253, 79, 6, 170, 195, 214, 255, 187, 0, 43, 252, 0, 0, 0, 0, 0, 0, 0, 0, 0, 0, 0, 0
79, 16, 248, 126, 50, 127, 19, 127, 57, 126, 213, 128, 130, 126, 205, 127, 126, 127, 130, 128, 216, 127, 103, 127, 51, 127, 231, 129, 34, 127
80, 16, 15, 127, 92, 127, 92, 127, 220, 126, 201, 128, 124, 126, 180, 127, 134, 127, 125, 128, 251, 127, 161, 127, 29, 127, 206, 129, 251, 126
40, 32, 9, 0, 113, 252, 112, 253, 117, 5, 119, 196, 8, 0, 174, 0, 90, 252, 0, 0, 0, 0, 0, 0, 0, 0, 0, 0, 0, 0
81, 16, 208, 126, 179, 127, 47, 127, 152, 127, 45, 129, 122, 126, 184, 127, 132, 127, 42, 128, 137, 127, 127, 127, 215, 126, 99, 129, 240, 126
82, 16, 207, 126, 167, 127, 253, 126, 94, 127, 118, 129, 135, 126, 185, 127, 130, 127, 70, 128, 124, 127, 14, 127, 154, 126, 91, 129, 250, 126
41, 32, 131, 0, 142, 252, 116, 253, 82, 5, 221, 195, 15, 0, 176, 0, 58, 252, 0, 0, 0, 0, 0, 0, 0, 0, 0, 0, 0, 0
83, 16, 8, 127, 110, 127, 22, 127, 13, 127, 2, 129, 152, 126, 165, 127, 129, 127, 143, 128, 213, 127, 245, 126, 129, 126, 138, 129, 185, 126
84, 16, 243, 126, 103, 127, 40, 127, 241, 126, 226, 128, 159, 126, 172, 127, 130, 127, 94, 128, 243, 127, 67, 127, 167, 126, 231, 128, 142, 126
42, 32, 187, 0, 184, 252, 141, 253, 68, 5, 198, 194, 243, 255, 183, 0, 59, 252, 0, 0, 0, 0, 0, 0, 0, 0, 0, 0, 0, 0
85, 16, 8, 127, 144, 127, 98, 127, 23, 127, 156, 129, 229, 126, 206, 127, 143, 127, 82, 128, 53, 128, 157, 127, 4, 127, 121, 128, 238, 126
86, 16, 49, 127, 171, 127, 110, 127, 85, 127, 244, 129, 20, 127, 210, 127, 146, 127, 141, 128, 118, 128, 162, 127, 65, 127, 219, 128, 65, 127
43, 32, 21, 1, 23, 253, 56, 254, 60, 5, 115, 195, 221, 255, 178, 0, 63, 252, 0, 0, 0, 0, 0, 0, 0, 0, 0, 0, 0, 0
87, 16, 250, 126, 115, 127, 34, 127, 36, 127, 214, 129, 26, 127, 168, 127, 131, 127, 184, 128, 62, 128, 123, 127, 69, 127, 232, 128, 33, 127
88, 16, 43, 127, 97, 127, 102, 127, 243, 126, 213, 129, 123, 127, 186, 127, 128, 127, 218, 128, 244, 127, 147, 127, 73, 127, 180, 128, 24, 127
44, 32, 90, 1, 88, 253, 112, 254, 225, 4, 45, 196, 54, 0, 184, 0, 51, 252, 0, 0, 0, 0, 0, 0, 0, 0, 0, 0, 0, 0
89, 16, 154, 127, 158, 127, 168, 127, 27, 127, 148, 129, 231, 127, 233, 127, 149, 127, 203, 128, 16, 128, 174, 127, 64, 127, 253, 128, 51, 127
90, 16, 23, 127, 148, 127, 34, 127, 48, 127, 49, 129, 228, 127, 201, 127, 152, 127, 110, 128, 12, 128, 126, 127, 247, 126, 226, 128, 3, 127
45, 32, 239, 1, 22, 254, 148, 254, 196, 4, 101, 196, 30, 0, 191, 0, 53, 252, 0, 0, 0, 0, 0, 0, 0, 0, 0, 0, 0, 0
91, 16, 171, 126, 137, 127, 2, 127, 50, 127, 127, 129, 220, 127, 189, 127, 141, 127, 77, 128, 233, 127, 134, 127, 241, 126, 116, 128, 239, 126
92, 16, 38, 127, 132, 127, 87, 127, 16, 127, 15, 130, 248, 127, 228, 127, 141, 127, 107, 128, 10, 128, 166, 127, 48, 127, 182, 128, 29, 127
46, 32, 65, 2, 119, 254, 154, 254, 20, 5, 126, 196, 189, 0, 180, 0, 60, 252, 0, 0, 0, 0, 0, 0, 0, 0, 0, 0, 0, 0
93, 16, 138, 127, 111, 127, 69, 127, 110, 126, 220, 129, 230, 127, 231, 127, 152, 127, 89, 128, 37, 128, 132, 127, 52, 127, 2, 129, 17, 127
94, 16, 116, 127, 121, 127, 71, 127, 150, 126, 138, 129, 250, 127, 217, 127, 145, 127, 120, 128, 242, 127, 181, 127, 39, 127, 244, 128, 10, 127
47, 32, 132, 2, 187, 254, 145, 254, 204, 4, 177, 196, 41, 1, 178, 0, 64, 252, 0, 0, 0, 0, 0, 0, 0, 0, 0, 0, 0, 0
95, 16, 86, 127, 130, 127, 102, 127, 118, 127, 143, 129, 44, 128, 215, 127, 132, 127, 152, 128, 197, 127, 2, 128, 56, 127, 226, 128, 58, 127
96, 16, 48, 127, 147, 127, 44, 127, 249, 126, 122, 129, 244, 127, 200, 127, 136, 127, 51, 128, 205, 127, 167, 127, 33, 127, 163, 128, 32, 127
48, 32, 34, 3, 116, 255, 107, 254, 141, 5, 72, 195, 190, 1, 178, 0, 72, 252, 0, 0, 0, 0, 0, 0, 0, 0, 0, 0, 0, 0
97, 16, 8, 127, 133, 127, 252, 126, 96, 126, 153, 129, 246, 127, 151, 127, 131, 127, 238, 127, 234, 127, 82, 127, 6, 127, 106, 128, 235, 126
98, 16, 15, 127, 136, 127, 38, 127, 18, 127, 223, 129, 75, 128, 155, 127, 123, 127, 16, 128, 20, 128, 140, 127, 25, 127, 143, 128, 1, 127
49, 32, 104, 3, 197, 255, 111, 254, 84, 6, 168, 194, 75, 2, 182, 0, 83, 252, 0, 0, 0, 0, 0, 0, 0, 0, 0, 0, 0, 0
99, 16, 17, 127, 141, 127, 18, 127, 69, 127, 188, 129, 60, 128, 178, 127, 130, 127, 246, 127, 230, 127, 152, 127, 217, 126, 149, 128, 226, 126
100, 16, 5, 127, 108, 127, 224, 126, 112, 126, 209, 129, 18, 128, 145, 127, 129, 127, 194, 127, 135, 127, 103, 127, 122, 126, 92, 128, 138, 126
50, 32, 181, 3, 76, 0, 85, 254, 111, 7, 87, 194, 86, 3, 183, 0, 78, 252, 0, 0, 0, 0, 0, 0, 0, 0, 0, 0, 0, 0
101, 16, 27, 127, 129, 127, 32, 127, 46, 126, 176, 129, 40, 128, 164, 127, 123, 127, 245, 127, 192, 127, 104, 127, 130, 126, 95, 128, 128, 126
102, 16, 245, 126, 153, 127, 38, 127, 241, 126, 3, 129, 58, 128, 204, 127, 130, 127, 12, 128, 2, 128, 97, 127, 141, 126, 101, 128, 132, 126
51, 32, 200, 3, 97, 0, 113, 254, 10, 8, 61, 194, 210, 3, 179, 0, 92, 252, 0, 0, 0, 0, 0, 0, 0, 0, 0, 0, 0, 0
103, 16, 244, 126, 136, 127, 11, 127, 54, 127, 92, 129, 66, 128, 203, 127, 145, 127, 12, 128, 191, 127, 153, 127, 175, 126, 142, 128, 155, 126
104, 16, 101, 127, 125, 127, 114, 127, 161, 126, 92, 130, 68, 128, 204, 127, 146, 127, 82, 128, 192, 127, 1, 128, 43, 127, 222, 128, 15, 127
52, 32, 220, 3, 105, 0, 49, 254, 143, 9, 234, 193, 37, 4, 173, 0, 93, 252, 0, 0, 0, 0, 0, 0, 0, 0, 0, 0, 0, 0
105, 16, 134, 127, 138, 127, 148, 127, 187, 126, 45, 130, 27, 128, 171, 127, 141, 127, 81, 128, 15, 128, 21, 128, 98, 127, 225, 128, 72, 127
106, 16, 50, 127, 168, 127, 64, 127, 28, 127, 116, 129, 254, 127, 137, 127, 139, 127, 213, 127, 233, 127, 236, 127, 23, 127, 180, 128, 7, 127
53, 32, 202, 3, 64, 0, 240, 253, 125, 9, 124, 194, 226, 4, 168, 0, 100, 252, 0, 0, 0, 0, 0, 0, 0, 0, 0, 0, 0, 0
107, 16, 74, 127, 139, 127, 65, 127, 123, 126, 152, 129, 1, 128, 140, 127, 134, 127, 161, 127, 205, 127, 249, 127, 34, 127, 207, 128, 24, 127
108, 16, 187, 127, 104, 127, 124, 127, 79, 126, 50, 130, 18, 128, 174, 127, 131, 127, 240, 127, 14, 128, 80, 128, 155, 127, 50, 129, 152, 127
54, 32, 255, 3, 29, 0, 205, 253, 60, 9, 52, 195, 135, 5, 165, 0, 83, 252, 0, 0, 0, 0, 0, 0, 0, 0, 0, 0, 0, 0
109, 16, 174, 127, 137, 127, 111, 127, 0, 127, 203, 129, 35, 128, 204, 127, 134, 127, 41, 128, 30, 128, 101, 128, 141, 127, 7, 129, 165, 127
110, 16, 97, 127, 162, 127, 50, 127, 209, 126, 214, 128, 22, 128, 177, 127, 131, 127, 252, 127, 252, 127, 250, 127, 255, 126, 44, 128, 41, 127
55, 32, 34, 4, 21, 0, 212, 253, 23, 10, 115, 195, 182, 5, 173, 0, 102, 252, 0, 0, 0, 0, 0, 0, 0, 0, 0, 0, 0, 0
111, 16, 119, 127, 150, 127, 28, 127, 94, 126, 70, 129, 61, 128, 174, 127, 130, 127, 218, 127, 230, 127, 195, 127, 234, 126, 237, 127, 248, 126
112, 16, 176, 127, 93, 127, 63, 127, 150, 126, 62, 130, 137, 128, 206, 127, 136, 127, 16, 128, 10, 128, 21, 128, 58, 127, 121, 128, 37, 127
56, 32, 73, 4, 235, 255, 228, 253, 99, 10, 33, 195, 220, 5, 174, 0, 105, 252, 0, 0, 0, 0, 0, 0, 0, 0, 0, 0, 0, 0
113, 16, 135, 127, 68, 127, 83, 127, 145, 126, 195, 129, 106, 128, 192, 127, 141, 127, 40, 128, 33, 128, 252, 127, 38, 127, 113, 128, 32, 127
114, 16, 77, 127, 157, 127, 57, 127, 88, 126, 6, 129, 53, 128, 160, 127, 134, 127, 248, 127, 239, 127, 159, 127, 4, 127, 15, 128, 2, 127
57, 32, 75, 4, 183, 255, 227, 253, 246, 10, 220, 194, 102, 6, 158, 0, 118, 252, 0, 0, 0, 0, 0, 0, 0, 0, 0, 0, 0, 0
115, 16, 92, 127, 198, 127, 43, 127, 181, 126, 151, 129, 129, 128, 163, 127, 125, 127, 226, 127, 225, 127, 228, 127, 39, 127, 80, 128, 21, 127
116, 16, 121, 127, 122, 127, 46, 127, 52, 127, 41, 130, 198, 128, 193, 127, 134, 127, 235, 127, 13, 128, 52, 128, 33, 127, 188, 128, 29, 127
58, 32, 25, 4, 85, 255, 188, 253, 163, 10, 208, 194, 179, 6, 159, 0, 117, 252, 0, 0, 0, 0, 0, 0, 0, 0, 0, 0, 0, 0
117, 16, 119, 127, 50, 127, 48, 127, 248, 126, 125, 129, 121, 128, 194, 127, 138, 127, 255, 127, 5, 128, 39, 128, 17, 127, 193, 128, 19, 127
118, 16, 120, 127, 107, 127, 106, 127, 88, 126, 209, 128, 39, 128, 189, 127, 130, 127, 15, 128, 225, 127, 63, 128, 72, 127, 179, 128, 62, 127
59, 32, 40, 4, 56, 255, 188, 253, 7, 10, 186, 194, 33, 7, 151, 0, 38, 252, 0, 0, 0, 0, 0, 0, 0, 0, 0, 0, 0, 0
119, 16, 204, 127, 227, 127, 185, 127, 97, 126, 10, 129, 37, 128, 214, 127, 136, 127, 15, 128, 255, 127, 113, 128, 153, 127, 221, 128, 148, 127
120, 16, 250, 127, 191, 127, 169, 127, 38, 127, 60, 129, 58, 128, 189, 127, 138, 127, 1, 128, 1, 128, 83, 128, 176, 127, 19, 129, 178, 127
60, 32, 55, 4, 121, 255, 172, 253, 61, 10, 33, 194, 153, 7, 160, 0, 131, 252, 0, 0, 0, 0, 0, 0, 0, 0, 0, 0, 0, 0
121, 16, 185, 127, 87, 127, 92, 127, 72, 127, 206, 128, 39, 128, 136, 127, 132, 127, 210, 127, 152, 127, 4, 128, 124, 127, 232, 128, 131, 127
122, 16, 170, 127, 125, 127, 86, 127, 130, 126, 173, 128, 51, 128, 171, 127, 140, 127, 205, 127, 98, 127, 241, 127, 90, 127, 139, 128, 105, 127
